========================================================================================================================
 !iproc = 1: O2+hv->O(3P)+O(3P) . T ind. Other process : O2->O(3P)+O(1D) : see iproc=50 
 !175.4-204.1nm : S.R.bands : not used (Kockart's parametrization) ! Ly-a crs param see lya_sr.f, qy see 
 !Lacoursiere/et-al:1999. 204.1-244nm : Hertzberg continuum : JPL97. 116.3-204.1nm : Values from crsnewadd.dat
 Begins at wl interval :         1 | Finishes at wl interval :    77
 ! no  from(nm) to(nm) | crs (cm2)  | qyield (0->1)
   1   116.30   117.00     2.00E-20       .000
   2   117.00   117.60     1.25E-18       .000
   3   117.60   118.30     2.55E-19       .000
   4   118.30   119.00     3.00E-20       .000
   5   119.00   119.80     3.75E-19       .000
   6   119.80   120.50     4.45E-18       .000
   7   120.50   121.20     8.35E-18       .000
   8   121.59   121.59     1.00E-20      0.420
   9   121.20   122.00     6.00E-19       .000
  10   122.00   122.70     2.35E-19       .000
  11   122.70   123.50     4.50E-19       .000
  12   123.50   124.20     3.35E-19       .000
  13   124.20   125.00     1.75E-17       .000
  14   125.00   125.80     8.95E-19       .000
  15   125.80   126.60     4.30E-19       .000
  16   126.60   127.40     1.10E-19       .000
  17   127.40   128.20     2.05E-19       .000
  18   128.20   129.00     4.43E-19       .000
  19   129.00   129.90     5.55E-19       .000
  20   129.90   130.70     4.20E-19       .000
  21   130.70   131.60     6.85E-19       .000
  22   131.60   132.40     1.45E-18       .000
  23   132.40   133.30     2.25E-18       .000
  24   133.30   134.20     2.30E-18       .000
  25   134.20   135.10     4.55E-18       .000
  26   135.10   136.00     7.23E-18       .000
  27   136.00   137.00     9.50E-18       .000
  28   137.00   137.90     1.23E-17       .000
  29   137.90   138.90     1.32E-17       .000
  30   138.90   140.80     1.36E-17       .000
  31   140.80   142.80     1.40E-17       .000
  32   142.80   144.90     1.48E-17       .000
  33   144.90   147.00     1.41E-17       .000
  34   147.00   149.20     1.29E-17       .000
  35   149.20   151.50     1.15E-17       .000
  36   151.50   153.80     9.91E-18       .000
  37   153.80   156.20     8.24E-18       .000
  38   156.20   158.70     6.58E-18       .000
  39   158.70   161.30     4.97E-18       .000
  40   161.30   163.90     3.45E-18       .000
  41   163.90   166.70     2.08E-18       .000
  42   166.70   169.50     1.23E-18       .000
  43   169.50   172.40     7.22E-19       .000
  44   172.40   173.90     4.58E-19       .000
  45   173.90   175.40     2.74E-19       .000
  46   175.40   177.00     7.20E-21      1.000
  47   177.00   178.60     3.86E-21      1.000
  48   178.60   180.20     2.16E-21      1.000
  49   180.20   181.80     1.20E-21      1.000
  50   181.80   183.50     6.60E-22      1.000
  51   183.50   185.20     3.54E-22      1.000
  52   185.20   186.90     2.00E-22      1.000
  53   186.90   188.70     1.20E-22      1.000
  54   188.70   190.50     5.85E-23      1.000
  55   190.50   192.30     4.60E-23      1.000
  56   192.30   194.20     3.10E-23      1.000
  57   194.20   196.10     2.50E-23      1.000
  58   196.10   198.00     1.90E-23      1.000
  59   198.00   200.00     1.61E-23      1.000
  60   200.00   202.00     1.32E-23      1.000
  61   202.00   204.10     1.03E-23      1.000
  62   204.10   206.20     7.35E-24      1.000
  63   206.20   208.30     7.00E-24      1.000
  64   208.30   210.50     6.61E-24      1.000
  65   210.50   212.80     6.12E-24      1.000
  66   212.80   215.00     5.72E-24      1.000
  67   215.00   217.40     5.31E-24      1.000
  68   217.40   219.80     4.74E-24      1.000
  69   219.80   222.20     4.26E-24      1.000
  70   222.20   224.70     3.78E-24      1.000
  71   224.70   227.30     3.21E-24      1.000
  72   227.30   229.90     2.69E-24      1.000
  73   229.90   232.60     2.21E-24      1.000
  74   232.60   235.30     1.77E-24      1.000
  75   235.30   238.10     1.38E-24      1.000
  76   238.10   241.00     1.05E-24      1.000
  77   241.00   243.90     2.50E-25      1.000
========================================================================================================================
 !iproc = 2: O3+hv->O2+O(3P) . T dep. between 277.8-347.5nm where source : Molina & molina 1986,JGR,Vol.91,pp.14501-14508
 !and formula : crs(T) = crs_on_file + tb_o3*(T-230) + tc_o3*(T-230)**2 ; T(K) . Other wl : T ind. 
 !Range :116.3-362.5nm & 407.5-735 nm. Same crs,tb_o3 & tc_o3 for iproc=18. qyield is T dep : computed in model, subrout CRSCOR
 Begins at wl interval :         1 | Finishes at wl interval :   171
 ! no  from(nm) to(nm) | crs (cm2)  |qyield(0->1)| tb_o3     | tc_o3 
   1   116.30   117.00     7.80E-18      9.990    0.000E+00   0.000E+00
   2   117.00   117.60     7.97E-18      9.990    0.000E+00   0.000E+00
   3   117.60   118.30     8.66E-18      9.990    0.000E+00   0.000E+00
   4   118.30   119.00     9.51E-18      9.990    0.000E+00   0.000E+00
   5   119.00   119.80     1.25E-17      9.990    0.000E+00   0.000E+00
   6   119.80   120.50     1.84E-17      9.990    0.000E+00   0.000E+00
   7   120.50   121.20     2.19E-17      9.990    0.000E+00   0.000E+00
   8   121.59   121.59     2.32E-17      9.990    0.000E+00   0.000E+00
   9   121.20   122.00     2.30E-17      9.990    0.000E+00   0.000E+00
  10   122.00   122.70     2.26E-17      9.990    0.000E+00   0.000E+00
  11   122.70   123.50     2.06E-17      9.990    0.000E+00   0.000E+00
  12   123.50   124.20     1.30E-17      9.990    0.000E+00   0.000E+00
  13   124.20   125.00     8.91E-18      9.990    0.000E+00   0.000E+00
  14   125.00   125.80     7.24E-18      9.990    0.000E+00   0.000E+00
  15   125.80   126.60     6.09E-18      9.990    0.000E+00   0.000E+00
  16   126.60   127.40     5.66E-18      9.990    0.000E+00   0.000E+00
  17   127.40   128.20     5.87E-18      9.990    0.000E+00   0.000E+00
  18   128.20   129.00     6.47E-18      9.990    0.000E+00   0.000E+00
  19   129.00   129.90     8.14E-18      9.990    0.000E+00   0.000E+00
  20   129.90   130.70     1.24E-17      9.990    0.000E+00   0.000E+00
  21   130.70   131.60     1.52E-17      9.990    0.000E+00   0.000E+00
  22   131.60   132.40     1.47E-17      9.990    0.000E+00   0.000E+00
  23   132.40   133.30     1.51E-17      9.990    0.000E+00   0.000E+00
  24   133.30   134.20     1.51E-17      9.990    0.000E+00   0.000E+00
  25   134.20   135.10     1.65E-17      9.990    0.000E+00   0.000E+00
  26   135.10   136.00     1.54E-17      9.990    0.000E+00   0.000E+00
  27   136.00   137.00     1.35E-17      9.990    0.000E+00   0.000E+00
  28   137.00   137.90     1.05E-17      9.990    0.000E+00   0.000E+00
  29   137.90   138.90     7.97E-18      9.990    0.000E+00   0.000E+00
  30   138.90   140.80     7.17E-18      9.990    0.000E+00   0.000E+00
  31   140.80   142.80     6.28E-18      9.990    0.000E+00   0.000E+00
  32   142.80   144.90     5.66E-18      9.990    0.000E+00   0.000E+00
  33   144.90   147.00     5.23E-18      9.990    0.000E+00   0.000E+00
  34   147.00   149.20     4.47E-18      9.990    0.000E+00   0.000E+00
  35   149.20   151.50     3.69E-18      9.990    0.000E+00   0.000E+00
  36   151.50   153.80     2.93E-18      9.990    0.000E+00   0.000E+00
  37   153.80   156.20     2.19E-18      9.990    0.000E+00   0.000E+00
  38   156.20   158.70     1.63E-18      9.990    0.000E+00   0.000E+00
  39   158.70   161.30     1.20E-18      9.990    0.000E+00   0.000E+00
  40   161.30   163.90     9.77E-19      9.990    0.000E+00   0.000E+00
  41   163.90   166.70     8.66E-19      9.990    0.000E+00   0.000E+00
  42   166.70   169.50     8.14E-19      9.990    0.000E+00   0.000E+00
  43   169.50   172.40     8.17E-19      9.990    0.000E+00   0.000E+00
  44   172.40   173.90     8.57E-19      9.990    0.000E+00   0.000E+00
  45   173.90   175.40     8.40E-19      9.990    0.000E+00   0.000E+00
  46   175.40   177.00     8.11E-19      9.990    0.000E+00   0.000E+00
  47   177.00   178.60     7.99E-19      9.990    0.000E+00   0.000E+00
  48   178.60   180.20     7.86E-19      9.990    0.000E+00   0.000E+00
  49   180.20   181.80     7.63E-19      9.990    0.000E+00   0.000E+00
  50   181.80   183.50     7.29E-19      9.990    0.000E+00   0.000E+00
  51   183.50   185.20     6.88E-19      9.990    0.000E+00   0.000E+00
  52   185.20   186.90     6.22E-19      9.990    0.000E+00   0.000E+00
  53   186.90   188.70     5.76E-19      9.990    0.000E+00   0.000E+00
  54   188.70   190.50     5.26E-19      9.990    0.000E+00   0.000E+00
  55   190.50   192.30     4.76E-19      9.990    0.000E+00   0.000E+00
  56   192.30   194.20     4.28E-19      9.990    0.000E+00   0.000E+00
  57   194.20   196.10     3.83E-19      9.990    0.000E+00   0.000E+00
  58   196.10   198.00     3.47E-19      9.990    0.000E+00   0.000E+00
  59   198.00   200.00     3.23E-19      9.990    0.000E+00   0.000E+00
  60   200.00   202.00     3.14E-19      9.990    0.000E+00   0.000E+00
  61   202.00   204.10     3.26E-19      9.990    0.000E+00   0.000E+00
  62   204.10   206.20     3.64E-19      9.990    0.000E+00   0.000E+00
  63   206.20   208.30     4.34E-19      9.990    0.000E+00   0.000E+00
  64   208.30   210.50     5.42E-19      9.990    0.000E+00   0.000E+00
  65   210.50   212.80     6.99E-19      9.990    0.000E+00   0.000E+00
  66   212.80   215.00     9.21E-19      9.990    0.000E+00   0.000E+00
  67   215.00   217.40     1.19E-18      9.990    0.000E+00   0.000E+00
  68   217.40   219.80     1.55E-18      9.990    0.000E+00   0.000E+00
  69   219.80   222.20     1.99E-18      9.990    0.000E+00   0.000E+00
  70   222.20   224.70     2.56E-18      9.990    0.000E+00   0.000E+00
  71   224.70   227.30     3.23E-18      9.990    0.000E+00   0.000E+00
  72   227.30   229.90     4.00E-18      9.990    0.000E+00   0.000E+00
  73   229.90   232.60     4.83E-18      9.990    0.000E+00   0.000E+00
  74   232.60   235.30     5.79E-18      9.990    0.000E+00   0.000E+00
  75   235.30   238.10     6.86E-18      9.990    0.000E+00   0.000E+00
  76   238.10   241.00     7.97E-18      9.990    0.000E+00   0.000E+00
  77   241.00   243.90     9.00E-18      9.990    0.000E+00   0.000E+00
  78   243.90   246.90     1.00E-17      9.990    0.000E+00   0.000E+00
  79   246.90   250.00     1.08E-17      9.990    0.000E+00   0.000E+00
  80   250.00   253.20     1.13E-17      9.990    0.000E+00   0.000E+00
  81   253.20   256.40     1.15E-17      9.990    0.000E+00   0.000E+00
  82   256.40   259.70     1.12E-17      9.990    0.000E+00   0.000E+00
  83   259.70   263.20     1.06E-17      9.990    0.000E+00   0.000E+00
  84   263.20   266.70     9.65E-18      9.990    0.000E+00   0.000E+00
  85   266.70   270.30     8.34E-18      9.990    0.000E+00   0.000E+00
  86   270.30   274.00     6.92E-18      9.990    0.000E+00   0.000E+00
  87   274.00   277.80     5.42E-18      9.990    0.000E+00   0.000E+00
  88   277.80   281.70     4.03E-18      9.990    4.382E-02   0.000E+00
  89   281.70   285.70     2.78E-18      9.990    6.312E-02   0.000E+00
  90   285.70   289.90     1.84E-18      9.990   -9.667E-02   2.103E-04
  91   289.90   294.10     1.13E-18      9.990   -1.070E-01   3.270E-04
  92   294.10   298.50     6.51E-19      9.990   -8.002E-02   2.268E-04
  93   298.50   303.00     3.62E-19      9.990   -6.716E-02   3.331E-04
  94   303.00   307.70     1.96E-19      9.990   -4.419E-02   2.034E-04
  95   307.70   312.50     1.05E-19      9.990   -2.883E-02   1.391E-04
  96   312.50   317.50     5.47E-20      9.990   -2.009E-02   9.887E-05
  97   317.50   322.50     2.76E-20      9.990   -1.007E-02   2.952E-05
  98   322.50   327.50     1.35E-20      9.990   -5.751E-03   1.109E-05
  99   327.50   332.50     6.94E-21      9.990   -2.979E-03   3.104E-06
 100   332.50   337.50     3.21E-21      9.990   -1.950E-03   5.646E-06
 101   337.50   342.50     1.45E-21      9.990   -1.103E-03   2.882E-06
 102   342.50   347.50     7.58E-22      9.990   -5.736E-04   1.605E-06
 103   347.50   352.50     2.66E-22      9.990    0.000E+00   0.000E+00
 104   352.50   357.50     1.09E-22      9.990    0.000E+00   0.000E+00
 105   357.50   362.50     5.49E-23      9.990    0.000E+00   0.000E+00
 106   362.50   367.50     0.00E+00      9.990    0.000E+00   0.000E+00
 107   367.50   372.50     0.00E+00      9.990    0.000E+00   0.000E+00
 108   372.50   377.50     0.00E+00      9.990    0.000E+00   0.000E+00
 109   377.50   382.50     0.00E+00      9.990    0.000E+00   0.000E+00
 110   382.50   387.50     0.00E+00      9.990    0.000E+00   0.000E+00
 111   387.50   392.50     0.00E+00      9.990    0.000E+00   0.000E+00
 112   392.50   397.50     0.00E+00      9.990    0.000E+00   0.000E+00
 113   397.50   402.50     0.00E+00      9.990    0.000E+00   0.000E+00
 114   402.50   407.50     0.00E+00      9.990    0.000E+00   0.000E+00
 115   407.50   412.50     2.91E-23      9.990    0.000E+00   0.000E+00
 116   412.50   417.50     3.14E-23      9.990    0.000E+00   0.000E+00
 117   417.50   422.50     3.99E-23      9.990    0.000E+00   0.000E+00
 118   422.50   427.50     6.54E-23      9.990    0.000E+00   0.000E+00
 119   427.50   432.50     6.83E-23      9.990    0.000E+00   0.000E+00
 120   432.50   437.50     8.66E-23      9.990    0.000E+00   0.000E+00
 121   437.50   442.50     1.25E-22      9.990    0.000E+00   0.000E+00
 122   442.50   447.50     1.49E-22      9.990    0.000E+00   0.000E+00
 123   447.50   452.50     1.63E-22      9.990    0.000E+00   0.000E+00
 124   452.50   457.50     2.12E-22      9.990    0.000E+00   0.000E+00
 125   457.50   462.50     3.57E-22      9.990    0.000E+00   0.000E+00
 126   462.50   467.50     3.68E-22      9.990    0.000E+00   0.000E+00
 127   467.50   472.50     4.06E-22      9.990    0.000E+00   0.000E+00
 128   472.50   477.50     4.89E-22      9.990    0.000E+00   0.000E+00
 129   477.50   482.50     7.11E-22      9.990    0.000E+00   0.000E+00
 130   482.50   487.50     8.43E-22      9.990    0.000E+00   0.000E+00
 131   487.50   492.50     8.28E-22      9.990    0.000E+00   0.000E+00
 132   492.50   497.50     9.09E-22      9.990    0.000E+00   0.000E+00
 133   497.50   502.50     1.22E-21      9.990    0.000E+00   0.000E+00
 134   502.50   507.50     1.62E-21      9.990    0.000E+00   0.000E+00
 135   507.50   512.50     1.58E-21      9.990    0.000E+00   0.000E+00
 136   512.50   517.50     1.60E-21      9.990    0.000E+00   0.000E+00
 137   517.50   522.50     1.78E-21      9.990    0.000E+00   0.000E+00
 138   522.50   527.50     2.07E-21      9.990    0.000E+00   0.000E+00
 139   527.50   532.50     2.55E-21      9.990    0.000E+00   0.000E+00
 140   532.50   537.50     2.74E-21      9.990    0.000E+00   0.000E+00
 141   537.50   542.50     2.88E-21      9.990    0.000E+00   0.000E+00
 142   542.50   547.50     3.07E-21      9.990    0.000E+00   0.000E+00
 143   547.50   552.50     3.17E-21      9.990    0.000E+00   0.000E+00
 144   552.50   557.50     3.36E-21      9.990    0.000E+00   0.000E+00
 145   557.50   562.50     3.88E-21      9.990    0.000E+00   0.000E+00
 146   562.50   567.50     4.31E-21      9.990    0.000E+00   0.000E+00
 147   567.50   572.50     4.67E-21      9.990    0.000E+00   0.000E+00
 148   572.50   577.50     4.75E-21      9.990    0.000E+00   0.000E+00
 149   577.50   582.50     4.55E-21      9.990    0.000E+00   0.000E+00
 150   582.50   587.50     4.35E-21      9.990    0.000E+00   0.000E+00
 151   587.50   592.50     4.42E-21      9.990    0.000E+00   0.000E+00
 152   592.50   597.50     4.61E-21      9.990    0.000E+00   0.000E+00
 153   597.50   602.50     4.89E-21      9.990    0.000E+00   0.000E+00
 154   602.50   607.50     4.84E-21      9.990    0.000E+00   0.000E+00
 155   607.50   612.50     4.54E-21      9.990    0.000E+00   0.000E+00
 156   612.50   617.50     4.24E-21      9.990    0.000E+00   0.000E+00
 157   617.50   622.50     3.90E-21      9.990    0.000E+00   0.000E+00
 158   622.50   627.50     3.60E-21      9.990    0.000E+00   0.000E+00
 159   627.50   632.50     3.43E-21      9.990    0.000E+00   0.000E+00
 160   632.50   637.50     3.17E-21      9.990    0.000E+00   0.000E+00
 161   637.50   642.50     2.74E-21      9.990    0.000E+00   0.000E+00
 162   642.50   647.50     2.61E-21      9.990    0.000E+00   0.000E+00
 163   647.50   655.00     2.40E-21      9.990    0.000E+00   0.000E+00
 164   655.00   665.00     2.07E-21      9.990    0.000E+00   0.000E+00
 165   665.00   675.00     1.72E-21      9.990    0.000E+00   0.000E+00
 166   675.00   685.00     1.37E-21      9.990    0.000E+00   0.000E+00
 167   685.00   695.00     1.11E-21      9.990    0.000E+00   0.000E+00
 168   695.00   705.00     9.13E-22      9.990    0.000E+00   0.000E+00
 169   705.00   715.00     7.93E-22      9.990    0.000E+00   0.000E+00
 170   715.00   725.00     6.40E-22      9.990    0.000E+00   0.000E+00
 171   725.00   735.00     5.14E-22      9.990    0.000E+00   0.000E+00
========================================================================================================================
!iproc = 3: H2O+hv->H+OH : T indep
!Sources : 116.3-140.8nm : crsnewadd.dat; Ly-a:avg from Lewis&al.,JGR88p4935,1983; 140.8-194.2nm:Cheng&al,GRL,p3657,1999
!Range : 116.3 - 194.2 nm
 Begins at wl interval :         1 | Finishes at wl interval :    56
! no  from(nm) to(nm) | crs (cm2)  | qyield (0->1)
   1   116.30   117.00     3.93E-17      1.000
   2   117.00   117.60     7.79E-17      1.000
   3   117.60   118.30     3.53E-17      1.000
   4   118.30   119.00     3.92E-17      1.000
   5   119.00   119.80     1.02E-17      1.000
   6   119.80   120.50     5.45E-18      1.000
   7   120.50   121.20     5.11E-18      1.000
   8   121.59   121.59     1.53E-17      1.000
   9   121.20   122.00     1.44E-17      1.000
  10   122.00   122.70     1.36E-17      1.000
  11   122.70   123.50     3.00E-18      1.000
  12   123.50   124.20     1.20E-17      1.000
  13   124.20   125.00     7.20E-18      1.000
  14   125.00   125.80     6.50E-18      1.000
  15   125.80   126.60     7.00E-18      1.000
  16   126.60   127.40     7.55E-18      1.000
  17   127.40   128.20     7.50E-18      1.000
  18   128.20   129.00     7.40E-18      1.000
  19   129.00   129.90     7.30E-18      1.000
  20   129.90   130.70     6.60E-18      1.000
  21   130.70   131.60     6.10E-18      1.000
  22   131.60   132.40     5.77E-18      1.000
  23   132.40   133.30     4.65E-18      1.000
  24   133.30   134.20     4.42E-18      1.000
  25   134.20   135.10     3.47E-18      1.000
  26   135.10   136.00     2.84E-18      1.000
  27   136.00   137.00     2.29E-18      1.000
  28   137.00   137.90     1.78E-18      1.000
  29   137.90   138.90     1.34E-18      1.000
  30   138.90   140.80     8.00E-19      1.000
  31   140.80   142.80     6.51E-19      1.000
  32   142.80   144.90     5.74E-19      1.000
  33   144.90   147.00     6.74E-19      1.000
  34   147.00   149.20     9.28E-19      1.000
  35   149.20   151.50     1.31E-18      1.000
  36   151.50   153.80     1.86E-18      1.000
  37   153.80   156.20     2.50E-18      1.000
  38   156.20   158.70     3.24E-18      1.000
  39   158.70   161.30     4.07E-18      1.000
  40   161.30   163.90     4.79E-18      1.000
  41   163.90   166.70     5.33E-18      1.000
  42   166.70   169.50     5.36E-18      1.000
  43   169.50   172.40     4.94E-18      1.000
  44   172.40   173.90     4.04E-18      1.000
  45   173.90   175.40     3.44E-18      1.000
  46   175.40   177.00     2.88E-18      1.000
  47   177.00   178.60     2.07E-18      1.000
  48   178.60   180.20     1.17E-18      1.000
  49   180.20   181.80     5.50E-19      1.000
  50   181.80   183.50     2.32E-19      1.000
  51   183.50   185.20     9.62E-20      1.000
  52   185.20   186.90     4.07E-20      1.000
  53   186.90   188.70     1.74E-20      1.000
  54   188.70   190.50     7.42E-21      1.000
  55   190.50   192.30     3.25E-21      1.000
  56   192.30   194.20     1.39E-21      1.000
========================================================================================================================
 !iproc = 4: N2O+hv->N2+O(1D) : T dep. Mathematical expression fct of T & wl, computed in model (subroutine crscor)
 !Source : JPL97, Table 17, p.161 : Selwyn & al., 1977, GRL,Vol.4,pp.427-430 .
 !Temp range : 194-320 K ; wl range : 173-240 nm . qyield = 1 .
 Begins at wl interval :        44 | Finishes at wl interval :    76
 ! no  from(nm) to(nm) | crs (cm2)  | qyield (0->1)
  44   172.40   173.90     9.99E-04      1.000
  45   173.90   175.40     9.99E-04      1.000
  46   175.40   177.00     9.99E-04      1.000
  47   177.00   178.60     9.99E-04      1.000
  48   178.60   180.20     9.99E-04      1.000
  49   180.20   181.80     9.99E-04      1.000
  50   181.80   183.50     9.99E-04      1.000
  51   183.50   185.20     9.99E-04      1.000
  52   185.20   186.90     9.99E-04      1.000
  53   186.90   188.70     9.99E-04      1.000
  54   188.70   190.50     9.99E-04      1.000
  55   190.50   192.30     9.99E-04      1.000
  56   192.30   194.20     9.99E-04      1.000
  57   194.20   196.10     9.99E-04      1.000
  58   196.10   198.00     9.99E-04      1.000
  59   198.00   200.00     9.99E-04      1.000
  60   200.00   202.00     9.99E-04      1.000
  61   202.00   204.10     9.99E-04      1.000
  62   204.10   206.20     9.99E-04      1.000
  63   206.20   208.30     9.99E-04      1.000
  64   208.30   210.50     9.99E-04      1.000
  65   210.50   212.80     9.99E-04      1.000
  66   212.80   215.00     9.99E-04      1.000
  67   215.00   217.40     9.99E-04      1.000
  68   217.40   219.80     9.99E-04      1.000
  69   219.80   222.20     9.99E-04      1.000
  70   222.20   224.70     9.99E-04      1.000
  71   224.70   227.30     9.99E-04      1.000
  72   227.30   229.90     9.99E-04      1.000
  73   229.90   232.60     9.99E-04      1.000
  74   232.60   235.30     9.99E-04      1.000
  75   235.30   238.10     9.99E-04      1.000
  76   238.10   241.00     9.99E-04      1.000
========================================================================================================================
 !iproc = 5: CO2+hv->CO+O(1D) : T indep.
 !Source : Lewis & Carver, J Quant Spectros Radiat Transfer, vol30, p297, 1983, interpolations by SC
 !Range : 120.5-196.1 nm. Columns "crs300" for T=300K, "crs200" for T=200K and "crs370" for T=370K
 Begins at wl interval :         7 | Finishes at wl interval :    57
 ! no  from(nm) to(nm) | crs300 (cm2) | qyield (0->1)| crs200 (cm2) | crs370 (cm2) 
   7   120.50   121.20     5.56E-20      1.000          5.18E-20       6.05E-20
   8   121.59   121.59     7.37E-20      1.000          7.10E-20       8.03E-20
   9   121.20   122.00     6.93E-20      1.000          6.49E-20       7.57E-20
  10   122.00   122.70     8.86E-20      1.000          8.37E-20       9.70E-20
  11   122.70   123.50     1.11E-19      1.000          1.08E-19       1.22E-19
  12   123.50   124.20     1.35E-19      1.000          1.34E-19       1.54E-19
  13   124.20   125.00     1.82E-19      1.000          1.77E-19       1.96E-19
  14   125.00   125.80     2.22E-19      1.000          2.11E-19       2.43E-19
  15   125.80   126.60     3.08E-19      1.000          3.00E-19       3.28E-19
  16   126.60   127.40     4.09E-19      1.000          3.89E-19       4.36E-19
  17   127.40   128.20     4.50E-19      1.000          4.34E-19       4.82E-19
  18   128.20   129.00     5.00E-19      1.000          4.79E-19       5.47E-19
  19   129.00   129.90     6.10E-19      1.000          5.66E-19       6.66E-19
  20   129.90   130.70     8.09E-19      1.000          7.94E-19       8.69E-19
  21   130.70   131.60     7.99E-19      1.000          7.69E-19       8.56E-19
  22   131.60   132.40     7.37E-19      1.000          7.09E-19       8.03E-19
  23   132.40   133.30     8.15E-19      1.000          7.82E-19       8.69E-19
  24   133.30   134.20     8.51E-19      1.000          8.37E-19       8.88E-19
  25   134.20   135.10     7.92E-19      1.000          8.03E-19       8.25E-19
  26   135.10   136.00     6.82E-19      1.000          6.73E-19       7.02E-19
  27   136.00   137.00     6.49E-19      1.000          6.38E-19       6.48E-19
  28   137.00   137.90     5.77E-19      1.000          5.67E-19       5.78E-19
  29   137.90   138.90     5.54E-19      1.000          5.53E-19       5.39E-19
  30   138.90   140.80     5.39E-19      1.000          5.37E-19       5.24E-19
  31   140.80   142.80     5.73E-19      1.000          5.70E-19       5.60E-19
  32   142.80   144.90     5.88E-19      1.000          5.85E-19       5.88E-19
  33   144.90   147.00     5.75E-19      1.000          5.74E-19       5.93E-19
  34   147.00   149.20     5.46E-19      1.000          5.33E-19       5.73E-19
  35   149.20   151.50     4.95E-19      1.000          4.73E-19       5.25E-19
  36   151.50   153.80     4.23E-19      1.000          3.91E-19       4.56E-19
  37   153.80   156.20     3.44E-19      1.000          3.12E-19       3.80E-19
  38   156.20   158.70     2.58E-19      1.000          2.25E-19       2.95E-19
  39   158.70   161.30     1.76E-19      1.000          1.46E-19       2.10E-19
  40   161.30   163.90     1.13E-19      1.000          9.04E-20       1.41E-19
  41   163.90   166.70     6.79E-20      1.000          5.15E-20       9.01E-20
  42   166.70   169.50     3.77E-20      1.000          2.66E-20       5.25E-20
  43   169.50   172.40     1.94E-20      1.000          1.26E-20       2.89E-20
  44   172.40   173.90     1.11E-20      1.000          6.69E-21       1.72E-20
  45   173.90   175.40     7.57E-21      1.000          4.48E-21       1.24E-20
  46   175.40   177.00     4.86E-21      1.000          2.79E-21       8.10E-21
  47   177.00   178.60     3.11E-21      1.000          1.66E-21       5.70E-21
  48   178.60   180.20     1.91E-21      1.000          9.91E-22       3.78E-21
  49   180.20   181.80     1.17E-21      1.000          5.58E-22       2.47E-21
  50   181.80   183.50     7.14E-22      1.000          3.26E-22       1.54E-21
  51   183.50   185.20     4.33E-22      1.000          1.99E-22       9.88E-22
  52   185.20   186.90     2.59E-22      1.000          1.11E-22       6.22E-22
  53   186.90   188.70     1.48E-22      1.000          6.12E-23       3.83E-22
  54   188.70   190.50     8.28E-23      1.000          3.12E-23       2.26E-22
  55   190.50   192.30     4.42E-23      1.000          1.86E-23       1.30E-22
  56   192.30   194.20     2.47E-23      1.000          8.98E-24       7.50E-23
  57   194.20   196.10     1.46E-23      1.000          5.80E-24       4.78E-23
========================================================================================================================
 !iproc = 6: CH4+hv->products : T indep. Source : crsnewadd.dat
 ! Source : lambda>135nm: Mount et al., Astrophysical Journal, 214:L47-49, 1977 ; lambda < 135nm: ??
 !Range : 116.3 - 161.3 nm
 Begins at wl interval :         1 | Finishes at wl interval :    39
 ! no  from(nm) to(nm) | crs (cm2)  | qyield (0->1)
   1   116.30   117.00     1.90E-17      1.000
   2   117.00   117.60     1.90E-17      1.000
   3   117.60   118.30     1.90E-17      1.000
   4   118.30   119.00     1.90E-17      1.000
   5   119.00   119.80     1.90E-17      1.000
   6   119.80   120.50     1.90E-17      1.000
   7   120.50   121.20     1.90E-17      1.000
   8   121.59   121.59     1.80E-17      1.000
   9   121.20   122.00     1.90E-17      1.000
  10   122.00   122.70     1.90E-17      1.000
  11   122.70   123.50     1.90E-17      1.000
  12   123.50   124.20     1.90E-17      1.000
  13   124.20   125.00     1.90E-17      1.000
  14   125.00   125.80     1.90E-17      1.000
  15   125.80   126.60     1.90E-17      1.000
  16   126.60   127.40     1.90E-17      1.000
  17   127.40   128.20     1.90E-17      1.000
  18   128.20   129.00     1.90E-17      1.000
  19   129.00   129.90     1.90E-17      1.000
  20   129.90   130.70     1.90E-17      1.000
  21   130.70   131.60     1.80E-17      1.000
  22   131.60   132.40     1.60E-17      1.000
  23   132.40   133.30     1.50E-17      1.000
  24   133.30   134.20     1.20E-17      1.000
  25   134.20   135.10     9.50E-18      1.000
  26   135.10   136.00     7.00E-18      1.000
  27   136.00   137.00     5.00E-18      1.000
  28   137.00   137.90     3.25E-18      1.000
  29   137.90   138.90     1.98E-18      1.000
  30   138.90   140.80     8.60E-19      1.000
  31   140.80   142.80     2.40E-19      1.000
  32   142.80   144.90     3.80E-20      1.000
  33   144.90   147.00     3.30E-21      1.000
  34   147.00   149.20     2.90E-22      1.000
  35   149.20   151.50     2.80E-23      1.000
  36   151.50   153.80     1.27E-23      1.000
  37   153.80   156.20     9.00E-24      1.000
  38   156.20   158.70     7.20E-24      1.000
  39   158.70   161.30     6.50E-24      1.000
========================================================================================================================
 !iproc = 7: NO2+hv->NO+O(3P) . T dep from 274. to 422.5 nm . Source : JPL97(tables13&14,p.156-157)
 !Formula for T dep : crs = crs_on_file + ta_no2*T(celsius!) . qyield interpolated from JPL97 .
 !Range : 185.2-422.5 nm
 Begins at wl interval :        52 | Finishes at wl interval :   117
 ! no  from(nm) to(nm) | crs (cm2)  |qyield(0->1)| ta_no2
  52   185.20   186.90     2.69E-19      1.000    0.000E+00
  53   186.90   188.70     2.53E-19      1.000    0.000E+00
  54   188.70   190.50     2.89E-19      1.000    0.000E+00
  55   190.50   192.30     2.83E-19      1.000    0.000E+00
  56   192.30   194.20     2.36E-19      1.000    0.000E+00
  57   194.20   196.10     2.38E-19      1.000    0.000E+00
  58   196.10   198.00     2.80E-19      1.000    0.000E+00
  59   198.00   200.00     3.36E-19      1.000    0.000E+00
  60   200.00   202.00     3.87E-19      1.000    0.000E+00
  61   202.00   204.10     4.14E-19      1.000    0.000E+00
  62   204.10   206.20     4.48E-19      1.000    0.000E+00
  63   206.20   208.30     4.45E-19      1.000    0.000E+00
  64   208.30   210.50     4.64E-19      1.000    0.000E+00
  65   210.50   212.80     4.87E-19      1.000    0.000E+00
  66   212.80   215.00     4.82E-19      1.000    0.000E+00
  67   215.00   217.40     5.02E-19      1.000    0.000E+00
  68   217.40   219.80     4.44E-19      1.000    0.000E+00
  69   219.80   222.20     4.71E-19      1.000    0.000E+00
  70   222.20   224.70     3.77E-19      1.000    0.000E+00
  71   224.70   227.30     3.93E-19      1.000    0.000E+00
  72   227.30   229.90     2.74E-19      1.000    0.000E+00
  73   229.90   232.60     2.78E-19      1.000    0.000E+00
  74   232.60   235.30     1.69E-19      1.000    0.000E+00
  75   235.30   238.10     1.62E-19      1.000    0.000E+00
  76   238.10   241.00     8.81E-20      1.000    0.000E+00
  77   241.00   243.90     7.47E-20      1.000    0.000E+00
  78   243.90   246.90     3.91E-20      1.000    0.000E+00
  79   246.90   250.00     2.75E-20      1.000    0.000E+00
  80   250.00   253.20     2.01E-20      1.000    0.000E+00
  81   253.20   256.40     1.97E-20      1.000    0.000E+00
  82   256.40   259.70     2.11E-20      1.000    0.000E+00
  83   259.70   263.20     2.36E-20      1.000    0.000E+00
  84   263.20   266.70     2.70E-20      1.000    0.000E+00
  85   266.70   270.30     3.25E-20      1.000    0.000E+00
  86   270.30   274.00     3.78E-20      1.000    0.000E+00
  87   274.00   277.80     5.03E-20      1.000    7.500E-24
  88   277.80   281.70     5.88E-20      1.000    8.200E-24
  89   281.70   285.70     7.00E-20      1.000   -5.300E-24
  90   285.70   289.90     8.15E-20       .999   -4.300E-24
  91   289.90   294.10     9.72E-20       .999   -3.100E-24
  92   294.10   298.50     1.15E-19       .998   -1.620E-23
  93   298.50   303.00     1.34E-19       .997   -2.840E-23
  94   303.00   307.70     1.59E-19       .996   -3.570E-23
  95   307.70   312.50     1.87E-19       .995   -5.360E-23
  96   312.50   317.50     2.15E-19       .994   -6.860E-23
  97   317.50   322.50     2.48E-19       .993   -7.860E-23
  98   322.50   327.50     2.81E-19       .992   -1.105E-22
  99   327.50   332.50     3.13E-19       .991   -1.355E-22
 100   332.50   337.50     3.42E-19       .990   -1.277E-22
 101   337.50   342.50     3.80E-19       .989   -1.612E-22
 102   342.50   347.50     4.07E-19       .988   -1.890E-22
 103   347.50   352.50     4.31E-19       .987   -1.219E-22
 104   352.50   357.50     4.72E-19       .986   -1.921E-22
 105   357.50   362.50     4.83E-19       .984   -1.095E-22
 106   362.50   367.50     5.17E-19       .983   -1.322E-22
 107   367.50   372.50     5.31E-19       .981   -1.102E-22
 108   372.50   377.50     5.51E-19       .979   -8.060E-23
 109   377.50   382.50     5.64E-19       .975   -8.670E-23
 110   382.50   387.50     5.76E-19       .969   -9.450E-23
 111   387.50   392.50     5.93E-19       .960   -9.230E-23
 112   392.50   397.50     5.84E-19       .926   -7.380E-23
 113   397.50   402.50     6.02E-19       .693   -5.990E-23
 114   402.50   407.50     5.78E-19       .356   -5.450E-23
 115   407.50   412.50     6.00E-19       .135   -1.129E-22
 116   412.50   417.50     5.65E-19       .060    1.000E-25
 117   417.50   422.50     5.81E-19       .018   -1.208E-22
========================================================================================================================
 !iproc = 8: HNO3+hv->OH+NO2 . T dep. qyield=1 but ->O+HONO not considered.
 !Source : JPL97(table20,p.164) but no T range
 !Formula for T dep : crs=crs(298)*exp(tb_hno3*(T(K)-298)). wl range : 190.5-347.5nm
 Begins at wl interval :        55 | Finishes at wl interval :   102
 ! no  from(nm) to(nm) | crs (cm2)  |qyield(0->1)| tb_hno3
  55   190.50   192.30     1.27E-17      1.000    0.000E+00
  56   192.30   194.20     1.14E-17      1.000    8.947E-06
  57   194.20   196.10     1.01E-17      1.000    9.752E-04
  58   196.10   198.00     8.51E-18      1.000    1.674E-03
  59   198.00   200.00     6.79E-18      1.000    1.655E-03
  60   200.00   202.00     5.17E-18      1.000    1.675E-03
  61   202.00   204.10     3.85E-18      1.000    1.716E-03
  62   204.10   206.20     2.72E-18      1.000    1.757E-03
  63   206.20   208.30     1.84E-18      1.000    1.820E-03
  64   208.30   210.50     1.20E-18      1.000    1.934E-03
  65   210.50   212.80     7.48E-19      1.000    2.059E-03
  66   212.80   215.00     4.61E-19      1.000    2.155E-03
  67   215.00   217.40     2.89E-19      1.000    2.178E-03
  68   217.40   219.80     1.86E-19      1.000    2.188E-03
  69   219.80   222.20     1.34E-19      1.000    2.105E-03
  70   222.20   224.70     1.02E-19      1.000    1.987E-03
  71   224.70   227.30     8.08E-20      1.000    1.850E-03
  72   227.30   229.90     6.51E-20      1.000    1.790E-03
  73   229.90   232.60     5.21E-20      1.000    1.837E-03
  74   232.60   235.30     4.15E-20      1.000    1.904E-03
  75   235.30   238.10     3.22E-20      1.000    1.967E-03
  76   238.10   241.00     2.67E-20      1.000    1.962E-03
  77   241.00   243.90     2.30E-20      1.000    1.847E-03
  78   243.90   246.90     2.09E-20      1.000    1.650E-03
  79   246.90   250.00     2.00E-20      1.000    1.424E-03
  80   250.00   253.20     1.96E-20      1.000    1.259E-03
  81   253.20   256.40     1.95E-20      1.000    1.165E-03
  82   256.40   259.70     1.93E-20      1.000    1.128E-03
  83   259.70   263.20     1.88E-20      1.000    1.144E-03
  84   263.20   266.70     1.80E-20      1.000    1.199E-03
  85   266.70   270.30     1.68E-20      1.000    1.319E-03
  86   270.30   274.00     1.52E-20      1.000    1.501E-03
  87   274.00   277.80     1.34E-20      1.000    1.630E-03
  88   277.80   281.70     1.13E-20      1.000    1.769E-03
  89   281.70   285.70     9.24E-21      1.000    1.935E-03
  90   285.70   289.90     7.20E-21      1.000    2.141E-03
  91   289.90   294.10     5.33E-21      1.000    2.388E-03
  92   294.10   298.50     3.73E-21      1.000    2.741E-03
  93   298.50   303.00     2.43E-21      1.000    3.155E-03
  94   303.00   307.70     1.45E-21      1.000    3.670E-03
  95   307.70   312.50     8.19E-22      1.000    4.295E-03
  96   312.50   317.50     4.22E-22      1.000    5.205E-03
  97   317.50   322.50     2.07E-22      1.000    6.312E-03
  98   322.50   327.50     9.78E-23      1.000    7.372E-03
  99   327.50   332.50     4.54E-23      1.000    9.315E-03
 100   332.50   337.50     2.22E-23      1.000    1.012E-02
 101   337.50   342.50     1.10E-23      1.000    1.146E-02
 102   342.50   347.50     6.05E-24      1.000    1.096E-02
========================================================================================================================
 !iproc = 9 : CCl2F2(=CFC12)+hv->CClF2+Cl . T dep.
 !Source : JPL97(table43,p.188) . wl range:172.4-238.1nm
 !T-dep formula: crs(T)=crs_file*exp(4.1e-4*(wl-184.9)*(T-298)) , T(K),No Temp lim.
 Begins at wl interval :        44 | Finishes at wl interval :    75
 ! no  from(nm) to(nm) | crs (cm2)  | qyield (0->1)
  44   172.40   173.90     1.62E-18      1.000
  45   173.90   175.40     1.75E-18      1.000
  46   175.40   177.00     1.83E-18      1.000
  47   177.00   178.60     1.87E-18      1.000
  48   178.60   180.20     1.78E-18      1.000
  49   180.20   181.80     1.65E-18      1.000
  50   181.80   183.50     1.50E-18      1.000
  51   183.50   185.20     1.31E-18      1.000
  52   185.20   186.90     1.05E-18      1.000
  53   186.90   188.70     8.60E-19      1.000
  54   188.70   190.50     6.72E-19      1.000
  55   190.50   192.30     5.00E-19      1.000
  56   192.30   194.20     3.58E-19      1.000
  57   194.20   196.10     2.50E-19      1.000
  58   196.10   198.00     1.68E-19      1.000
  59   198.00   200.00     1.10E-19      1.000
  60   200.00   202.00     7.22E-20      1.000
  61   202.00   204.10     4.48E-20      1.000
  62   204.10   206.20     2.72E-20      1.000
  63   206.20   208.30     1.76E-20      1.000
  64   208.30   210.50     1.03E-20      1.000
  65   210.50   212.80     5.45E-21      1.000
  66   212.80   215.00     3.09E-21      1.000
  67   215.00   217.40     1.79E-21      1.000
  68   217.40   219.80     1.05E-21      1.000
  69   219.80   222.20     5.89E-22      1.000
  70   222.20   224.70     3.63E-22      1.000
  71   224.70   227.30     1.88E-22      1.000
  72   227.30   229.90     1.01E-22      1.000
  73   229.90   232.60     4.53E-23      1.000
  74   232.60   235.30     2.43E-23      1.000
  75   235.30   238.10     1.15E-23      1.000
========================================================================================================================
 !iproc = 10 : CFCl3(=CFC11)+hv->CFCl2+Cl . T dep.
 !Source : JPL97(table42,p.188). wl range:172.4-259.7nm
 !T-dep formula: crs(T)=crs_file*exp(1.0e-4*(wl-184.9)*(T-298)) , T(K),No Temp lim.
 Begins at wl interval :        44 | Finishes at wl interval :    82
 ! no  from(nm) to(nm) | crs (cm2)  | qyield (0->1)
  44   172.40   173.90     3.17E-18      1.000
  45   173.90   175.40     3.14E-18      1.000
  46   175.40   177.00     3.10E-18      1.000
  47   177.00   178.60     3.05E-18      1.000
  48   178.60   180.20     3.07E-18      1.000
  49   180.20   181.80     2.96E-18      1.000
  50   181.80   183.50     2.77E-18      1.000
  51   183.50   185.20     2.55E-18      1.000
  52   185.20   186.90     2.33E-18      1.000
  53   186.90   188.70     2.10E-18      1.000
  54   188.70   190.50     1.84E-18      1.000
  55   190.50   192.30     1.58E-18      1.000
  56   192.30   194.20     1.33E-18      1.000
  57   194.20   196.10     1.09E-18      1.000
  58   196.10   198.00     8.91E-19      1.000
  59   198.00   200.00     7.24E-19      1.000
  60   200.00   202.00     5.77E-19      1.000
  61   202.00   204.10     4.45E-19      1.000
  62   204.10   206.20     3.33E-19      1.000
  63   206.20   208.30     2.43E-19      1.000
  64   208.30   210.50     1.72E-19      1.000
  65   210.50   212.80     1.18E-19      1.000
  66   212.80   215.00     7.82E-20      1.000
  67   215.00   217.40     5.16E-20      1.000
  68   217.40   219.80     3.24E-20      1.000
  69   219.80   222.20     2.01E-20      1.000
  70   222.20   224.70     1.25E-20      1.000
  71   224.70   227.30     8.08E-21      1.000
  72   227.30   229.90     4.92E-21      1.000
  73   229.90   232.60     2.94E-21      1.000
  74   232.60   235.30     1.74E-21      1.000
  75   235.30   238.10     9.89E-22      1.000
  76   238.10   241.00     5.53E-22      1.000
  77   241.00   243.90     3.21E-22      1.000
  78   243.90   246.90     1.72E-22      1.000
  79   246.90   250.00     9.92E-23      1.000
  80   250.00   253.20     5.57E-23      1.000
  81   253.20   256.40     3.58E-23      1.000
  82   256.40   259.70     2.21E-23      1.000
========================================================================================================================
 !iproc = 11 : CCl4(=CFC10)+hv->CCl3+Cl . T dep.
 !Sources : 175.4-200nm:T ind, JPL97(table41,p.187). 200-250nm:T dep : P.Simon : Aeronomica Acta ??, prgm in SIGCFC
 !linear-log interpol from 250 to 277.8nm : see subroutine CRSCOR . No Temp limits. Total wl range :175.4-277.8nm.
 Begins at wl interval :        46 | Finishes at wl interval :    87
 ! no  from(nm) to(nm) | crs (cm2)  | qyield (0->1)
  46   175.40   177.00     1.00E-17      1.000
  47   177.00   178.60     9.69E-18      1.000
  48   178.60   180.20     8.33E-18      1.000
  49   180.20   181.80     6.80E-18      1.000
  50   181.80   183.50     5.44E-18      1.000
  51   183.50   185.20     4.27E-18      1.000
  52   185.20   186.90     3.19E-18      1.000
  53   186.90   188.70     2.30E-18      1.000
  54   188.70   190.50     1.60E-18      1.000
  55   190.50   192.30     1.13E-18      1.000
  56   192.30   194.20     8.37E-19      1.000
  57   194.20   196.10     7.08E-19      1.000
  58   196.10   198.00     6.70E-19      1.000
  59   198.00   200.00     6.54E-19      1.000
  60   200.00   202.00     9.99E-04      1.000
  61   202.00   204.10     9.99E-04      1.000
  62   204.10   206.20     9.99E-04      1.000
  63   206.20   208.30     9.99E-04      1.000
  64   208.30   210.50     9.99E-04      1.000
  65   210.50   212.80     9.99E-04      1.000
  66   212.80   215.00     9.99E-04      1.000
  67   215.00   217.40     9.99E-04      1.000
  68   217.40   219.80     9.99E-04      1.000
  69   219.80   222.20     9.99E-04      1.000
  70   222.20   224.70     9.99E-04      1.000
  71   224.70   227.30     9.99E-04      1.000
  72   227.30   229.90     9.99E-04      1.000
  73   229.90   232.60     9.99E-04      1.000
  74   232.60   235.30     9.99E-04      1.000
  75   235.30   238.10     9.99E-04      1.000
  76   238.10   241.00     9.99E-04      1.000
  77   241.00   243.90     9.99E-04      1.000
  78   243.90   246.90     9.99E-04      1.000
  79   246.90   250.00     9.99E-04      1.000
  80   250.00   253.20     9.99E-04      1.000
  81   253.20   256.40     9.99E-04      1.000
  82   256.40   259.70     9.99E-04      1.000
  83   259.70   263.20     9.99E-04      1.000
  84   263.20   266.70     9.99E-04      1.000
  85   266.70   270.30     9.99E-04      1.000
  86   270.30   274.00     9.99E-04      1.000
  87   274.00   277.80     9.99E-04      1.000
========================================================================================================================
 !iproc = 12: HOCl+hv->OH+Cl : T indep.
 !Sources : JPL97(table35,p.180)
 !range : 200 - 377.5 nm
 Begins at wl interval :        60 | Finishes at wl interval :   108
 ! no  from(nm) to(nm) | crs (cm2)  | qyield (0->1)
  60   200.00   202.00     6.60E-20      1.000
  61   202.00   204.10     5.84E-20      1.000
  62   204.10   206.20     5.49E-20      1.000
  63   206.20   208.30     5.46E-20      1.000
  64   208.30   210.50     5.65E-20      1.000
  65   210.50   212.80     6.04E-20      1.000
  66   212.80   215.00     6.62E-20      1.000
  67   215.00   217.40     7.59E-20      1.000
  68   217.40   219.80     8.80E-20      1.000
  69   219.80   222.20     1.03E-19      1.000
  70   222.20   224.70     1.18E-19      1.000
  71   224.70   227.30     1.35E-19      1.000
  72   227.30   229.90     1.54E-19      1.000
  73   229.90   232.60     1.72E-19      1.000
  74   232.60   235.30     1.87E-19      1.000
  75   235.30   238.10     1.99E-19      1.000
  76   238.10   241.00     2.06E-19      1.000
  77   241.00   243.90     2.08E-19      1.000
  78   243.90   246.90     1.99E-19      1.000
  79   246.90   250.00     1.83E-19      1.000
  80   250.00   253.20     1.62E-19      1.000
  81   253.20   256.40     1.40E-19      1.000
  82   256.40   259.70     1.18E-19      1.000
  83   259.70   263.20     9.65E-20      1.000
  84   263.20   266.70     7.88E-20      1.000
  85   266.70   270.30     6.47E-20      1.000
  86   270.30   274.00     5.52E-20      1.000
  87   274.00   277.80     4.96E-20      1.000
  88   277.80   281.70     4.75E-20      1.000
  89   281.70   285.70     4.82E-20      1.000
  90   285.70   289.90     5.08E-20      1.000
  91   289.90   294.10     5.43E-20      1.000
  92   294.10   298.50     5.79E-20      1.000
  93   298.50   303.00     5.99E-20      1.000
  94   303.00   307.70     6.04E-20      1.000
  95   307.70   312.50     5.86E-20      1.000
  96   312.50   317.50     5.48E-20      1.000
  97   317.50   322.50     4.87E-20      1.000
  98   322.50   327.50     4.24E-20      1.000
  99   327.50   332.50     3.53E-20      1.000
 100   332.50   337.50     2.90E-20      1.000
 101   337.50   342.50     2.34E-20      1.000
 102   342.50   347.50     1.82E-20      1.000
 103   347.50   352.50     1.50E-20      1.000
 104   352.50   357.50     1.23E-20      1.000
 105   357.50   362.50     9.22E-21      1.000
 106   362.50   367.50     9.39E-21      1.000
 107   367.50   372.50     8.59E-21      1.000
 108   372.50   377.50     8.00E-21      1.000
========================================================================================================================
 !iproc = 13 : CH3CCl3+hv->CH3CCl2+Cl . T dep.
 !Sources : JPL97(table47,p.192). No Temp limits
 !range : 181.8-241.nm . T dependency computed in model, subroutine SIGCFC
 Begins at wl interval :        50 | Finishes at wl interval :    76
 ! no  from(nm) to(nm) | crs (cm2)  | qyield (0->1)
  50   181.80   183.50     3.05E-18      1.000
  51   183.50   185.20     2.78E-18      1.000
  52   185.20   186.90     2.50E-18      1.000
  53   186.90   188.70     2.24E-18      1.000
  54   188.70   190.50     1.98E-18      1.000
  55   190.50   192.30     1.76E-18      1.000
  56   192.30   194.20     1.56E-18      1.000
  57   194.20   196.10     1.35E-18      1.000
  58   196.10   198.00     1.14E-18      1.000
  59   198.00   200.00     9.21E-19      1.000
  60   200.00   202.00     7.40E-19      1.000
  61   202.00   204.10     5.96E-19      1.000
  62   204.10   206.20     4.53E-19      1.000
  63   206.20   208.30     3.61E-19      1.000
  64   208.30   210.50     2.66E-19      1.000
  65   210.50   212.80     1.95E-19      1.000
  66   212.80   215.00     1.33E-19      1.000
  67   215.00   217.40     8.82E-20      1.000
  68   217.40   219.80     5.87E-20      1.000
  69   219.80   222.20     3.67E-20      1.000
  70   222.20   224.70     2.50E-20      1.000
  71   224.70   227.30     1.55E-20      1.000
  72   227.30   229.90     9.97E-21      1.000
  73   229.90   232.60     5.95E-21      1.000
  74   232.60   235.30     3.70E-21      1.000
  75   235.30   238.10     2.21E-21      1.000
  76   238.10   241.00     1.18E-21      1.000
========================================================================================================================
 !iproc = 14 : HO2NO2+hv->HO2+NO2 . T ind. qyield=0.67.
 !Sources : JPL97(table21,p.165). Other branch : iproc = 46 : ->OH+NO3 : qyield = 0.33
 !range : 190.5-327.5 nm
 Begins at wl interval :        55 | Finishes at wl interval :    98
 ! no  from(nm) to(nm) | crs (cm2)  | qyield (0->1)
  55   190.50   192.30     9.56E-18       .670
  56   192.30   194.20     8.84E-18       .670
  57   194.20   196.10     8.08E-18       .670
  58   196.10   198.00     7.12E-18       .670
  59   198.00   200.00     6.14E-18       .670
  60   200.00   202.00     5.24E-18       .670
  61   202.00   204.10     4.43E-18       .670
  62   204.10   206.20     3.63E-18       .670
  63   206.20   208.30     3.09E-18       .670
  64   208.30   210.50     2.54E-18       .670
  65   210.50   212.80     2.13E-18       .670
  66   212.80   215.00     1.78E-18       .670
  67   215.00   217.40     1.51E-18       .670
  68   217.40   219.80     1.30E-18       .670
  69   219.80   222.20     1.13E-18       .670
  70   222.20   224.70     1.01E-18       .670
  71   224.70   227.30     9.06E-19       .670
  72   227.30   229.90     8.32E-19       .670
  73   229.90   232.60     7.64E-19       .670
  74   232.60   235.30     7.05E-19       .670
  75   235.30   238.10     6.48E-19       .670
  76   238.10   241.00     5.90E-19       .670
  77   241.00   243.90     5.36E-19       .670
  78   243.90   246.90     4.83E-19       .670
  79   246.90   250.00     4.36E-19       .670
  80   250.00   253.20     3.92E-19       .670
  81   253.20   256.40     3.52E-19       .670
  82   256.40   259.70     3.10E-19       .670
  83   259.70   263.20     2.69E-19       .670
  84   263.20   266.70     2.30E-19       .670
  85   266.70   270.30     1.96E-19       .670
  86   270.30   274.00     1.61E-19       .670
  87   274.00   277.80     1.27E-19       .670
  88   277.80   281.70     9.50E-20       .670
  89   281.70   285.70     7.01E-20       .670
  90   285.70   289.90     4.91E-20       .670
  91   289.90   294.10     3.30E-20       .670
  92   294.10   298.50     2.14E-20       .670
  93   298.50   303.00     1.32E-20       .670
  94   303.00   307.70     8.72E-21       .670
  95   307.70   312.50     4.96E-21       .670
  96   312.50   317.50     3.00E-21       .670
  97   317.50   322.50     2.00E-21       .670
  98   322.50   327.50     1.00E-21       .670
========================================================================================================================
 !iproc = 15 : CH3Cl+hv->CH3+Cl . T dep. 
 !Sources : JPL97(table46,p.191). No Temp limits
 !range : 173.9-219.8nm . T dependency computed in model, subroutine SIGCFC
 Begins at wl interval :        45 | Finishes at wl interval :    68
 ! no  from(nm) to(nm) | crs (cm2)  | qyield (0->1)
  45   173.90   175.40     1.05E-18      1.000
  46   175.40   177.00     9.00E-19      1.000
  47   177.00   178.60     7.60E-19      1.000
  48   178.60   180.20     6.70E-19      1.000
  49   180.20   181.80     5.50E-19      1.000
  50   181.80   183.50     4.20E-19      1.000
  51   183.50   185.20     3.20E-19      1.000
  52   185.20   186.90     2.45E-19      1.000
  53   186.90   188.70     1.82E-19      1.000
  54   188.70   190.50     1.37E-19      1.000
  55   190.50   192.30     1.00E-19      1.000
  56   192.30   194.20     7.09E-20      1.000
  57   194.20   196.10     4.87E-20      1.000
  58   196.10   198.00     3.30E-20      1.000
  59   198.00   200.00     2.21E-20      1.000
  60   200.00   202.00     1.42E-20      1.000
  61   202.00   204.10     8.88E-21      1.000
  62   204.10   206.20     5.71E-21      1.000
  63   206.20   208.30     3.82E-21      1.000
  64   208.30   210.50     2.40E-21      1.000
  65   210.50   212.80     1.45E-21      1.000
  66   212.80   215.00     9.00E-22      1.000
  67   215.00   217.40     4.80E-22      1.000
  68   217.40   219.80     2.80E-22      1.000
========================================================================================================================
 !iproc = 16 : ClONO2+hv->ClO+NO2 . T dep. qyield lambda dep. Other branch : iproc=47 : ->Cl+NO3
 ! Sources : JPL97(table40,p.185). T range:220-298K; wl range:196.1-432.5nm.
 ! T dep formula : crs(T)=crs(296K)*(1+ta1_clono2*(T-296)+ta2_clono2*(T-296)**2), T(K)
 Begins at wl interval :        58 | Finishes at wl interval :   119
 ! no  from(nm) to(nm) | crs (cm2)  |qyield(0->1)|ta1_clono2 | ta2_clono2 
  58   196.10   198.00     3.04E-18      .400    8.910E-05  -8.255E-06
  59   198.00   200.00     2.87E-18      .400    3.573E-05  -7.812E-06
  60   200.00   202.00     2.79E-18      .400   -5.752E-05  -7.516E-06
  61   202.00   204.10     2.78E-18      .400   -1.908E-04  -7.448E-06
  62   204.10   206.20     2.84E-18      .400   -3.469E-04  -7.617E-06
  63   206.20   208.30     2.95E-18      .400   -5.069E-04  -7.923E-06
  64   208.30   210.50     3.10E-18      .400   -6.581E-04  -8.302E-06
  65   210.50   212.80     3.27E-18      .400   -7.876E-04  -8.693E-06
  66   212.80   215.00     3.39E-18      .400   -8.714E-04  -9.027E-06
  67   215.00   217.40     3.45E-18      .400   -9.034E-04  -9.255E-06
  68   217.40   219.80     3.39E-18      .400   -8.728E-04  -9.367E-06
  69   219.80   222.20     3.24E-18      .400   -7.839E-04  -9.368E-06
  70   222.20   224.70     2.98E-18      .400   -6.416E-04  -9.274E-06
  71   224.70   227.30     2.64E-18      .400   -4.530E-04  -9.060E-06
  72   227.30   229.90     2.27E-18      .400   -2.362E-04  -8.655E-06
  73   229.90   232.60     1.92E-18      .400   -3.127E-06  -7.973E-06
  74   232.60   235.30     1.59E-18      .400    2.231E-04  -7.116E-06
  75   235.30   238.10     1.31E-18      .400    4.166E-04  -6.361E-06
  76   238.10   241.00     1.08E-18      .400    5.664E-04  -5.997E-06
  77   241.00   243.90     8.93E-19      .400    6.800E-04  -6.081E-06
  78   243.90   246.90     7.45E-19      .400    7.812E-04  -6.448E-06
  79   246.90   250.00     6.07E-19      .400    9.057E-04  -6.573E-06
  80   250.00   253.20     5.13E-19      .400    1.076E-03  -6.040E-06
  81   253.20   256.40     4.35E-19      .400    1.264E-03  -5.084E-06
  82   256.40   259.70     3.71E-19      .400    1.443E-03  -4.208E-06
  83   259.70   263.20     3.14E-19      .400    1.596E-03  -3.486E-06
  84   263.20   266.70     2.66E-19      .400    1.738E-03  -2.725E-06
  85   266.70   270.30     2.21E-19      .400    1.881E-03  -1.876E-06
  86   270.30   274.00     1.84E-19      .400    2.030E-03  -9.726E-07
  87   274.00   277.80     1.50E-19      .400    2.017E-03   6.247E-08
  88   277.80   281.70     1.21E-19      .400    2.374E-03   1.139E-06
  89   281.70   285.70     9.51E-20      .400    2.546E-03   2.137E-06
  90   285.70   289.90     7.33E-20      .400    2.741E-03   3.053E-06
  91   289.90   294.10     5.50E-20      .400    2.950E-03   3.740E-06
  92   294.10   298.50     4.01E-20      .400    3.279E-03   5.284E-06
  93   298.50   303.00     2.98E-20      .400    3.711E-03   7.757E-06
  94   303.00   307.70     2.18E-20      .400    4.124E-03   9.907E-06
  95   307.70   312.50     1.59E-20      .385    4.539E-03   1.205E-05
  96   312.50   317.50     1.14E-20      .350    4.980E-03   1.490E-05
  97   317.50   322.50     8.31E-21      .344    5.400E-03   1.840E-05
  98   322.50   327.50     6.11E-21      .279    5.743E-03   2.269E-05
  99   327.50   332.50     4.66E-21      .243    5.920E-03   2.700E-05
 100   332.50   337.50     3.66E-21      .207    5.845E-03   2.757E-05
 101   337.50   342.50     3.02E-21      .171    5.510E-03   3.110E-05
 102   342.50   347.50     2.57E-21      .136    4.923E-03   2.864E-05
 103   347.50   352.50     2.29E-21      .100    4.020E-03   2.070E-05
 104   352.50   357.50     2.08E-21      .064    3.272E-03   1.382E-05
 105   357.50   362.50     2.00E-21      .029    2.700E-03   8.590E-06
 106   362.50   367.50     1.80E-21      .000    2.080E-03   2.032E-06
 107   367.50   372.50     1.59E-21      .000    1.330E-03  -7.400E-06
 108   372.50   377.50     1.41E-21      .000    7.647E-04  -1.438E-05
 109   377.50   382.50     1.21E-21      .000    3.530E-04  -1.910E-05
 110   382.50   387.50     1.05E-21      .000    2.369E-04  -2.115E-05
 111   387.50   392.50     9.09E-22      .000    4.100E-04  -2.050E-05
 112   392.50   397.50     7.56E-22      .000    7.728E-04  -1.872E-05
 113   397.50   402.50     6.38E-22      .000    1.380E-03  -1.420E-05
 114   402.50   407.50     5.40E-22      .000    2.151E-03  -7.147E-06
 115   407.50   412.50     4.44E-22      .000    3.380E-03   4.470E-06
 116   412.50   417.50     3.65E-22      .000    4.880E-03   1.925E-05
 117   417.50   422.50     3.16E-22      .000    6.700E-03   3.870E-05
 118   422.50   427.50     2.31E-22      .000    8.099E-03   5.555E-05
 119   427.50   432.50     1.89E-22      .000    9.720E-03   7.520E-05
========================================================================================================================
 !iproc = 17 : N2O5+hv->NO3+NO2 . T dep in 281.7-382.5nm
 !Sources : JPL97(table18,p.162) But NO T limit in crscor !
 !Wl range : 200.-382.5nm
 Begins at wl interval :        60 | Finishes at wl interval :   109
 ! no  from(nm) to(nm) | crs (cm2)  | qyield (0->1)
  60   200.00   202.00     9.00E-18      1.000
  61   202.00   204.10     8.59E-18      1.000
  62   204.10   206.20     8.12E-18      1.000
  63   206.20   208.30     7.03E-18      1.000
  64   208.30   210.50     5.91E-18      1.000
  65   210.50   212.80     4.97E-18      1.000
  66   212.80   215.00     4.12E-18      1.000
  67   215.00   217.40     3.34E-18      1.000
  68   217.40   219.80     2.62E-18      1.000
  69   219.80   222.20     2.05E-18      1.000
  70   222.20   224.70     1.68E-18      1.000
  71   224.70   227.30     1.35E-18      1.000
  72   227.30   229.90     1.12E-18      1.000
  73   229.90   232.60     9.35E-19      1.000
  74   232.60   235.30     8.16E-19      1.000
  75   235.30   238.10     7.19E-19      1.000
  76   238.10   241.00     6.33E-19      1.000
  77   241.00   243.90     5.71E-19      1.000
  78   243.90   246.90     5.10E-19      1.000
  79   246.90   250.00     4.37E-19      1.000
  80   250.00   253.20     3.74E-19      1.000
  81   253.20   256.40     3.23E-19      1.000
  82   256.40   259.70     2.83E-19      1.000
  83   259.70   263.20     2.43E-19      1.000
  84   263.20   266.70     2.01E-19      1.000
  85   266.70   270.30     1.73E-19      1.000
  86   270.30   274.00     1.48E-19      1.000
  87   274.00   277.80     1.28E-19      1.000
  88   277.80   281.70     1.05E-19      1.000
  89   281.70   285.70     9.99E-04      1.000
  90   285.70   289.90     9.99E-04      1.000
  91   289.90   294.10     9.99E-04      1.000
  92   294.10   298.50     9.99E-04      1.000
  93   298.50   303.00     9.99E-04      1.000
  94   303.00   307.70     9.99E-04      1.000
  95   307.70   312.50     9.99E-04      1.000
  96   312.50   317.50     9.99E-04      1.000
  97   317.50   322.50     9.99E-04      1.000
  98   322.50   327.50     9.99E-04      1.000
  99   327.50   332.50     9.99E-04      1.000
 100   332.50   337.50     9.99E-04      1.000
 101   337.50   342.50     9.99E-04      1.000
 102   342.50   347.50     9.99E-04      1.000
 103   347.50   352.50     9.99E-04      1.000
 104   352.50   357.50     9.99E-04      1.000
 105   357.50   362.50     9.99E-04      1.000
 106   362.50   367.50     9.99E-04      1.000
 107   367.50   372.50     9.99E-04      1.000
 108   372.50   377.50     9.99E-04      1.000
 109   377.50   382.50     9.99E-04      1.000
========================================================================================================================
 !iproc = 18 : O3+hv->O2+O(1D) . T dep between 277.8-347.5nm where source : Molina & molina 1986,JGR,Vol.91,pp.14501-14508
 !and formula : crs(T) = crs_on_file + tb_o3*(T-230) + tc_o3*(T-230)**2 ; T(K) . Other wavelengths : source : ??
 !Range :116.3-362.5nm & 407.5-735 nm. Same crs,tb_o3 & tc_o3 for iproc=2. qyield is T dep : computed in model, subrout CRSCOR
 Begins at wl interval :         1 | Finishes at wl interval :   171
 ! no  from(nm) to(nm) | crs (cm2)  |qyield(0->1)| tb_o3     | tc_o3 
   1   116.30   117.00     7.80E-18      9.990    0.000E+00   0.000E+00
   2   117.00   117.60     7.97E-18      9.990    0.000E+00   0.000E+00
   3   117.60   118.30     8.66E-18      9.990    0.000E+00   0.000E+00
   4   118.30   119.00     9.51E-18      9.990    0.000E+00   0.000E+00
   5   119.00   119.80     1.25E-17      9.990    0.000E+00   0.000E+00
   6   119.80   120.50     1.84E-17      9.990    0.000E+00   0.000E+00
   7   120.50   121.20     2.19E-17      9.990    0.000E+00   0.000E+00
   8   121.59   121.59     2.32E-17      9.990    0.000E+00   0.000E+00
   9   121.20   122.00     2.30E-17      9.990    0.000E+00   0.000E+00
  10   122.00   122.70     2.26E-17      9.990    0.000E+00   0.000E+00
  11   122.70   123.50     2.06E-17      9.990    0.000E+00   0.000E+00
  12   123.50   124.20     1.30E-17      9.990    0.000E+00   0.000E+00
  13   124.20   125.00     8.91E-18      9.990    0.000E+00   0.000E+00
  14   125.00   125.80     7.24E-18      9.990    0.000E+00   0.000E+00
  15   125.80   126.60     6.09E-18      9.990    0.000E+00   0.000E+00
  16   126.60   127.40     5.66E-18      9.990    0.000E+00   0.000E+00
  17   127.40   128.20     5.87E-18      9.990    0.000E+00   0.000E+00
  18   128.20   129.00     6.47E-18      9.990    0.000E+00   0.000E+00
  19   129.00   129.90     8.14E-18      9.990    0.000E+00   0.000E+00
  20   129.90   130.70     1.24E-17      9.990    0.000E+00   0.000E+00
  21   130.70   131.60     1.52E-17      9.990    0.000E+00   0.000E+00
  22   131.60   132.40     1.47E-17      9.990    0.000E+00   0.000E+00
  23   132.40   133.30     1.51E-17      9.990    0.000E+00   0.000E+00
  24   133.30   134.20     1.51E-17      9.990    0.000E+00   0.000E+00
  25   134.20   135.10     1.65E-17      9.990    0.000E+00   0.000E+00
  26   135.10   136.00     1.54E-17      9.990    0.000E+00   0.000E+00
  27   136.00   137.00     1.35E-17      9.990    0.000E+00   0.000E+00
  28   137.00   137.90     1.05E-17      9.990    0.000E+00   0.000E+00
  29   137.90   138.90     7.97E-18      9.990    0.000E+00   0.000E+00
  30   138.90   140.80     7.17E-18      9.990    0.000E+00   0.000E+00
  31   140.80   142.80     6.28E-18      9.990    0.000E+00   0.000E+00
  32   142.80   144.90     5.66E-18      9.990    0.000E+00   0.000E+00
  33   144.90   147.00     5.23E-18      9.990    0.000E+00   0.000E+00
  34   147.00   149.20     4.47E-18      9.990    0.000E+00   0.000E+00
  35   149.20   151.50     3.69E-18      9.990    0.000E+00   0.000E+00
  36   151.50   153.80     2.93E-18      9.990    0.000E+00   0.000E+00
  37   153.80   156.20     2.19E-18      9.990    0.000E+00   0.000E+00
  38   156.20   158.70     1.63E-18      9.990    0.000E+00   0.000E+00
  39   158.70   161.30     1.20E-18      9.990    0.000E+00   0.000E+00
  40   161.30   163.90     9.77E-19      9.990    0.000E+00   0.000E+00
  41   163.90   166.70     8.66E-19      9.990    0.000E+00   0.000E+00
  42   166.70   169.50     8.14E-19      9.990    0.000E+00   0.000E+00
  43   169.50   172.40     8.17E-19      9.990    0.000E+00   0.000E+00
  44   172.40   173.90     8.57E-19      9.990    0.000E+00   0.000E+00
  45   173.90   175.40     8.40E-19      9.990    0.000E+00   0.000E+00
  46   175.40   177.00     8.11E-19      9.990    0.000E+00   0.000E+00
  47   177.00   178.60     7.99E-19      9.990    0.000E+00   0.000E+00
  48   178.60   180.20     7.86E-19      9.990    0.000E+00   0.000E+00
  49   180.20   181.80     7.63E-19      9.990    0.000E+00   0.000E+00
  50   181.80   183.50     7.29E-19      9.990    0.000E+00   0.000E+00
  51   183.50   185.20     6.88E-19      9.990    0.000E+00   0.000E+00
  52   185.20   186.90     6.22E-19      9.990    0.000E+00   0.000E+00
  53   186.90   188.70     5.76E-19      9.990    0.000E+00   0.000E+00
  54   188.70   190.50     5.26E-19      9.990    0.000E+00   0.000E+00
  55   190.50   192.30     4.76E-19      9.990    0.000E+00   0.000E+00
  56   192.30   194.20     4.28E-19      9.990    0.000E+00   0.000E+00
  57   194.20   196.10     3.83E-19      9.990    0.000E+00   0.000E+00
  58   196.10   198.00     3.47E-19      9.990    0.000E+00   0.000E+00
  59   198.00   200.00     3.23E-19      9.990    0.000E+00   0.000E+00
  60   200.00   202.00     3.14E-19      9.990    0.000E+00   0.000E+00
  61   202.00   204.10     3.26E-19      9.990    0.000E+00   0.000E+00
  62   204.10   206.20     3.64E-19      9.990    0.000E+00   0.000E+00
  63   206.20   208.30     4.34E-19      9.990    0.000E+00   0.000E+00
  64   208.30   210.50     5.42E-19      9.990    0.000E+00   0.000E+00
  65   210.50   212.80     6.99E-19      9.990    0.000E+00   0.000E+00
  66   212.80   215.00     9.21E-19      9.990    0.000E+00   0.000E+00
  67   215.00   217.40     1.19E-18      9.990    0.000E+00   0.000E+00
  68   217.40   219.80     1.55E-18      9.990    0.000E+00   0.000E+00
  69   219.80   222.20     1.99E-18      9.990    0.000E+00   0.000E+00
  70   222.20   224.70     2.56E-18      9.990    0.000E+00   0.000E+00
  71   224.70   227.30     3.23E-18      9.990    0.000E+00   0.000E+00
  72   227.30   229.90     4.00E-18      9.990    0.000E+00   0.000E+00
  73   229.90   232.60     4.83E-18      9.990    0.000E+00   0.000E+00
  74   232.60   235.30     5.79E-18      9.990    0.000E+00   0.000E+00
  75   235.30   238.10     6.86E-18      9.990    0.000E+00   0.000E+00
  76   238.10   241.00     7.97E-18      9.990    0.000E+00   0.000E+00
  77   241.00   243.90     9.00E-18      9.990    0.000E+00   0.000E+00
  78   243.90   246.90     1.00E-17      9.990    0.000E+00   0.000E+00
  79   246.90   250.00     1.08E-17      9.990    0.000E+00   0.000E+00
  80   250.00   253.20     1.13E-17      9.990    0.000E+00   0.000E+00
  81   253.20   256.40     1.15E-17      9.990    0.000E+00   0.000E+00
  82   256.40   259.70     1.12E-17      9.990    0.000E+00   0.000E+00
  83   259.70   263.20     1.06E-17      9.990    0.000E+00   0.000E+00
  84   263.20   266.70     9.65E-18      9.990    0.000E+00   0.000E+00
  85   266.70   270.30     8.34E-18      9.990    0.000E+00   0.000E+00
  86   270.30   274.00     6.92E-18      9.990    0.000E+00   0.000E+00
  87   274.00   277.80     5.42E-18      9.990    0.000E+00   0.000E+00
  88   277.80   281.70     4.03E-18      9.990    4.382E-02   0.000E+00
  89   281.70   285.70     2.78E-18      9.990    6.312E-02   0.000E+00
  90   285.70   289.90     1.84E-18      9.990   -9.667E-02   2.103E-04
  91   289.90   294.10     1.13E-18      9.990   -1.070E-01   3.270E-04
  92   294.10   298.50     6.51E-19      9.990   -8.002E-02   2.268E-04
  93   298.50   303.00     3.62E-19      9.990   -6.716E-02   3.331E-04
  94   303.00   307.70     1.96E-19      9.990   -4.419E-02   2.034E-04
  95   307.70   312.50     1.05E-19      9.990   -2.883E-02   1.391E-04
  96   312.50   317.50     5.47E-20      9.990   -2.009E-02   9.887E-05
  97   317.50   322.50     2.76E-20      9.990   -1.007E-02   2.952E-05
  98   322.50   327.50     1.35E-20      9.990   -5.751E-03   1.109E-05
  99   327.50   332.50     6.94E-21      9.990   -2.979E-03   3.104E-06
 100   332.50   337.50     3.21E-21      9.990   -1.950E-03   5.646E-06
 101   337.50   342.50     1.45E-21      9.990   -1.103E-03   2.882E-06
 102   342.50   347.50     7.58E-22      9.990   -5.736E-04   1.605E-06
 103   347.50   352.50     2.66E-22      9.990    0.000E+00   0.000E+00
 104   352.50   357.50     1.09E-22      9.990    0.000E+00   0.000E+00
 105   357.50   362.50     5.49E-23      9.990    0.000E+00   0.000E+00
 106   362.50   367.50     0.00E+00      9.990    0.000E+00   0.000E+00
 107   367.50   372.50     0.00E+00      9.990    0.000E+00   0.000E+00
 108   372.50   377.50     0.00E+00      9.990    0.000E+00   0.000E+00
 109   377.50   382.50     0.00E+00      9.990    0.000E+00   0.000E+00
 110   382.50   387.50     0.00E+00      9.990    0.000E+00   0.000E+00
 111   387.50   392.50     0.00E+00      9.990    0.000E+00   0.000E+00
 112   392.50   397.50     0.00E+00      9.990    0.000E+00   0.000E+00
 113   397.50   402.50     0.00E+00      9.990    0.000E+00   0.000E+00
 114   402.50   407.50     0.00E+00      9.990    0.000E+00   0.000E+00
 115   407.50   412.50     2.91E-23      9.990    0.000E+00   0.000E+00
 116   412.50   417.50     3.14E-23      9.990    0.000E+00   0.000E+00
 117   417.50   422.50     3.99E-23      9.990    0.000E+00   0.000E+00
 118   422.50   427.50     6.54E-23      9.990    0.000E+00   0.000E+00
 119   427.50   432.50     6.83E-23      9.990    0.000E+00   0.000E+00
 120   432.50   437.50     8.66E-23      9.990    0.000E+00   0.000E+00
 121   437.50   442.50     1.25E-22      9.990    0.000E+00   0.000E+00
 122   442.50   447.50     1.49E-22      9.990    0.000E+00   0.000E+00
 123   447.50   452.50     1.63E-22      9.990    0.000E+00   0.000E+00
 124   452.50   457.50     2.12E-22      9.990    0.000E+00   0.000E+00
 125   457.50   462.50     3.57E-22      9.990    0.000E+00   0.000E+00
 126   462.50   467.50     3.68E-22      9.990    0.000E+00   0.000E+00
 127   467.50   472.50     4.06E-22      9.990    0.000E+00   0.000E+00
 128   472.50   477.50     4.89E-22      9.990    0.000E+00   0.000E+00
 129   477.50   482.50     7.11E-22      9.990    0.000E+00   0.000E+00
 130   482.50   487.50     8.43E-22      9.990    0.000E+00   0.000E+00
 131   487.50   492.50     8.28E-22      9.990    0.000E+00   0.000E+00
 132   492.50   497.50     9.09E-22      9.990    0.000E+00   0.000E+00
 133   497.50   502.50     1.22E-21      9.990    0.000E+00   0.000E+00
 134   502.50   507.50     1.62E-21      9.990    0.000E+00   0.000E+00
 135   507.50   512.50     1.58E-21      9.990    0.000E+00   0.000E+00
 136   512.50   517.50     1.60E-21      9.990    0.000E+00   0.000E+00
 137   517.50   522.50     1.78E-21      9.990    0.000E+00   0.000E+00
 138   522.50   527.50     2.07E-21      9.990    0.000E+00   0.000E+00
 139   527.50   532.50     2.55E-21      9.990    0.000E+00   0.000E+00
 140   532.50   537.50     2.74E-21      9.990    0.000E+00   0.000E+00
 141   537.50   542.50     2.88E-21      9.990    0.000E+00   0.000E+00
 142   542.50   547.50     3.07E-21      9.990    0.000E+00   0.000E+00
 143   547.50   552.50     3.17E-21      9.990    0.000E+00   0.000E+00
 144   552.50   557.50     3.36E-21      9.990    0.000E+00   0.000E+00
 145   557.50   562.50     3.88E-21      9.990    0.000E+00   0.000E+00
 146   562.50   567.50     4.31E-21      9.990    0.000E+00   0.000E+00
 147   567.50   572.50     4.67E-21      9.990    0.000E+00   0.000E+00
 148   572.50   577.50     4.75E-21      9.990    0.000E+00   0.000E+00
 149   577.50   582.50     4.55E-21      9.990    0.000E+00   0.000E+00
 150   582.50   587.50     4.35E-21      9.990    0.000E+00   0.000E+00
 151   587.50   592.50     4.42E-21      9.990    0.000E+00   0.000E+00
 152   592.50   597.50     4.61E-21      9.990    0.000E+00   0.000E+00
 153   597.50   602.50     4.89E-21      9.990    0.000E+00   0.000E+00
 154   602.50   607.50     4.84E-21      9.990    0.000E+00   0.000E+00
 155   607.50   612.50     4.54E-21      9.990    0.000E+00   0.000E+00
 156   612.50   617.50     4.24E-21      9.990    0.000E+00   0.000E+00
 157   617.50   622.50     3.90E-21      9.990    0.000E+00   0.000E+00
 158   622.50   627.50     3.60E-21      9.990    0.000E+00   0.000E+00
 159   627.50   632.50     3.43E-21      9.990    0.000E+00   0.000E+00
 160   632.50   637.50     3.17E-21      9.990    0.000E+00   0.000E+00
 161   637.50   642.50     2.74E-21      9.990    0.000E+00   0.000E+00
 162   642.50   647.50     2.61E-21      9.990    0.000E+00   0.000E+00
 163   647.50   655.00     2.40E-21      9.990    0.000E+00   0.000E+00
 164   655.00   665.00     2.07E-21      9.990    0.000E+00   0.000E+00
 165   665.00   675.00     1.72E-21      9.990    0.000E+00   0.000E+00
 166   675.00   685.00     1.37E-21      9.990    0.000E+00   0.000E+00
 167   685.00   695.00     1.11E-21      9.990    0.000E+00   0.000E+00
 168   695.00   705.00     9.13E-22      9.990    0.000E+00   0.000E+00
 169   705.00   715.00     7.93E-22      9.990    0.000E+00   0.000E+00
 170   715.00   725.00     6.40E-22      9.990    0.000E+00   0.000E+00
 171   725.00   735.00     5.14E-22      9.990    0.000E+00   0.000E+00
========================================================================================================================
 !iproc = 19: CFC113+hv->products . T dep.
 !Sources : P.Simon : Aeronomica Acta ??  : same as JPL97(table44,p.189) but extended wl range.
 !No Temp limits. Wl range : 116.3-250.nm . T dependency computed in model, subroutine SIGCFC
 Begins at wl interval :         1 | Finishes at wl interval :    79
 ! no  from(nm) to(nm) | crs (cm2)  | qyield (0->1)
   1   116.30   117.00     1.20E-18      1.000
   2   117.00   117.60     1.20E-18      1.000
   3   117.60   118.30     1.20E-18      1.000
   4   118.30   119.00     1.20E-18      1.000
   5   119.00   119.80     1.20E-18      1.000
   6   119.80   120.50     1.20E-18      1.000
   7   120.50   121.20     1.20E-18      1.000
   8   121.59   121.59     1.20E-18      1.000
   9   121.20   122.00     1.20E-18      1.000
  10   122.00   122.70     1.20E-18      1.000
  11   122.70   123.50     1.20E-18      1.000
  12   123.50   124.20     1.20E-18      1.000
  13   124.20   125.00     1.20E-18      1.000
  14   125.00   125.80     1.20E-18      1.000
  15   125.80   126.60     1.20E-18      1.000
  16   126.60   127.40     1.20E-18      1.000
  17   127.40   128.20     1.20E-18      1.000
  18   128.20   129.00     1.20E-18      1.000
  19   129.00   129.90     1.20E-18      1.000
  20   129.90   130.70     1.20E-18      1.000
  21   130.70   131.60     1.20E-18      1.000
  22   131.60   132.40     1.20E-18      1.000
  23   132.40   133.30     1.20E-18      1.000
  24   133.30   134.20     1.20E-18      1.000
  25   134.20   135.10     1.20E-18      1.000
  26   135.10   136.00     1.20E-18      1.000
  27   136.00   137.00     1.20E-18      1.000
  28   137.00   137.90     1.20E-18      1.000
  29   137.90   138.90     1.20E-18      1.000
  30   138.90   140.80     1.20E-18      1.000
  31   140.80   142.80     1.20E-18      1.000
  32   142.80   144.90     1.20E-18      1.000
  33   144.90   147.00     1.20E-18      1.000
  34   147.00   149.20     1.20E-18      1.000
  35   149.20   151.50     1.20E-18      1.000
  36   151.50   153.80     1.20E-18      1.000
  37   153.80   156.20     1.20E-18      1.000
  38   156.20   158.70     1.20E-18      1.000
  39   158.70   161.30     1.20E-18      1.000
  40   161.30   163.90     1.20E-18      1.000
  41   163.90   166.70     1.20E-18      1.000
  42   166.70   169.50     1.20E-18      1.000
  43   169.50   172.40     1.20E-18      1.000
  44   172.40   173.90     1.20E-18      1.000
  45   173.90   175.40     1.20E-18      1.000
  46   175.40   177.00     1.20E-18      1.000
  47   177.00   178.60     1.20E-18      1.000
  48   178.60   180.20     1.20E-18      1.000
  49   180.20   181.80     1.20E-18      1.000
  50   181.80   183.50     1.20E-18      1.000
  51   183.50   185.20     1.15E-18      1.000
  52   185.20   186.90     1.03E-18      1.000
  53   186.90   188.70     8.55E-19      1.000
  54   188.70   190.50     6.83E-19      1.000
  55   190.50   192.30     5.35E-19      1.000
  56   192.30   194.20     4.56E-19      1.000
  57   194.20   196.10     3.02E-19      1.000
  58   196.10   198.00     2.19E-19      1.000
  59   198.00   200.00     1.54E-19      1.000
  60   200.00   202.00     1.05E-19      1.000
  61   202.00   204.10     7.13E-20      1.000
  62   204.10   206.20     4.76E-20      1.000
  63   206.20   208.30     3.16E-20      1.000
  64   208.30   210.50     2.22E-20      1.000
  65   210.50   212.80     1.26E-20      1.000
  66   212.80   215.00     7.79E-21      1.000
  67   215.00   217.40     4.86E-21      1.000
  68   217.40   219.80     2.89E-21      1.000
  69   219.80   222.20     1.82E-21      1.000
  70   222.20   224.70     1.09E-21      1.000
  71   224.70   227.30     6.30E-22      1.000
  72   227.30   229.90     3.68E-22      1.000
  73   229.90   232.60     2.42E-22      1.000
  74   232.60   235.30     1.55E-22      1.000
  75   235.30   238.10     9.56E-23      1.000
  76   238.10   241.00     5.66E-23      1.000
  77   241.00   243.90     3.30E-23      1.000
  78   243.90   246.90     1.82E-23      1.000
  79   246.90   250.00     1.14E-23      1.000
========================================================================================================================
 !iproc = 20 : HCFC22+hv->products . T dep.
 !Sources : P.Simon : Aeronomica Acta  , same as JPL97(table48,p.192) but extended wl range.
 !No Temp limits. Wl range : 156.2-227.3nm . T dependency computed in model, subroutine SIGCFC
 Begins at wl interval :        38 | Finishes at wl interval :    71
 ! no  from(nm) to(nm) | crs (cm2)  | qyield (0->1)
  38   156.20   158.70     1.35E-18      1.000
  39   158.70   161.30     6.69E-19      1.000
  40   161.30   163.90     4.05E-19      1.000
  41   163.90   166.70     2.96E-19      1.000
  42   166.70   169.50     1.85E-19      1.000
  43   169.50   172.40     1.15E-19      1.000
  44   172.40   173.90     7.72E-20      1.000
  45   173.90   175.40     5.17E-20      1.000
  46   175.40   177.00     3.91E-20      1.000
  47   177.00   178.60     2.89E-20      1.000
  48   178.60   180.20     2.16E-20      1.000
  49   180.20   181.80     1.59E-20      1.000
  50   181.80   183.50     1.14E-20      1.000
  51   183.50   185.20     7.95E-21      1.000
  52   185.20   186.90     5.75E-21      1.000
  53   186.90   188.70     3.92E-21      1.000
  54   188.70   190.50     2.70E-21      1.000
  55   190.50   192.30     1.83E-21      1.000
  56   192.30   194.20     1.23E-21      1.000
  57   194.20   196.10     8.52E-22      1.000
  58   196.10   198.00     5.94E-22      1.000
  59   198.00   200.00     4.00E-22      1.000
  60   200.00   202.00     2.70E-22      1.000
  61   202.00   204.10     1.79E-22      1.000
  62   204.10   206.20     1.28E-22      1.000
  63   206.20   208.30     8.57E-23      1.000
  64   208.30   210.50     6.22E-23      1.000
  65   210.50   212.80     3.90E-23      1.000
  66   212.80   215.00     2.05E-23      1.000
  67   215.00   217.40     1.26E-23      1.000
  68   217.40   219.80     7.71E-24      1.000
  69   219.80   222.20     4.42E-24      1.000
  70   222.20   224.70     2.89E-24      1.000
  71   224.70   227.30     1.13E-24      1.000
========================================================================================================================
 !iproc :  21: Ha-1211+hv->products . T dep.
 !Sources : P.Simon : Aeronomica Acta ?? , same as JPL97(table44,p.154) but extended wl range.
 !No Temp limits. Wl range : 169.5-303.nm . T dependency computed in model, subroutine SIGCFC
 Begins at wl interval :        43 | Finishes at wl interval :    93
 ! no  from(nm) to(nm) | crs (cm2)  | qyield (0->1)
  43   169.50   172.40     2.69E-18      1.000
  44   172.40   173.90     1.88E-18      1.000
  45   173.90   175.40     1.48E-18      1.000
  46   175.40   177.00     1.12E-18      1.000
  47   177.00   178.60     8.45E-19      1.000
  48   178.60   180.20     6.41E-19      1.000
  49   180.20   181.80     4.87E-19      1.000
  50   181.80   183.50     3.91E-19      1.000
  51   183.50   185.20     3.57E-19      1.000
  52   185.20   186.90     3.62E-19      1.000
  53   186.90   188.70     4.30E-19      1.000
  54   188.70   190.50     5.15E-19      1.000
  55   190.50   192.30     5.47E-19      1.000
  56   192.30   194.20     6.55E-19      1.000
  57   194.20   196.10     7.75E-19      1.000
  58   196.10   198.00     8.98E-19      1.000
  59   198.00   200.00     1.04E-18      1.000
  60   200.00   202.00     1.15E-18      1.000
  61   202.00   204.10     1.20E-18      1.000
  62   204.10   206.20     1.21E-18      1.000
  63   206.20   208.30     1.21E-18      1.000
  64   208.30   210.50     1.18E-18      1.000
  65   210.50   212.80     1.13E-18      1.000
  66   212.80   215.00     1.06E-18      1.000
  67   215.00   217.40     9.72E-19      1.000
  68   217.40   219.80     8.73E-19      1.000
  69   219.80   222.20     7.65E-19      1.000
  70   222.20   224.70     6.62E-19      1.000
  71   224.70   227.30     5.60E-19      1.000
  72   227.30   229.90     4.69E-19      1.000
  73   229.90   232.60     3.82E-19      1.000
  74   232.60   235.30     3.09E-19      1.000
  75   235.30   238.10     2.50E-19      1.000
  76   238.10   241.00     1.90E-19      1.000
  77   241.00   243.90     1.43E-19      1.000
  78   243.90   246.90     1.06E-19      1.000
  79   246.90   250.00     7.66E-20      1.000
  80   250.00   253.20     5.38E-20      1.000
  81   253.20   256.40     3.68E-20      1.000
  82   256.40   259.70     2.40E-20      1.000
  83   259.70   263.20     1.05E-20      1.000
  84   263.20   266.70     6.15E-21      1.000
  85   266.70   270.30     3.53E-21      1.000
  86   270.30   274.00     1.95E-21      1.000
  87   274.00   277.80     1.02E-21      1.000
  88   277.80   281.70     5.11E-22      1.000
  89   281.70   285.70     2.49E-22      1.000
  90   285.70   289.90     1.14E-22      1.000
  91   289.90   294.10     4.93E-23      1.000
  92   294.10   298.50     2.02E-23      1.000
  93   298.50   303.00     7.58E-24      1.000
========================================================================================================================
 !iproc = 22 : Ha-1301+hv->products : T dep. JPL97 . T indep.
 !Sources : P.Simon : Aeronomica Acta ?? same as JPL97(table46,p.191) but extended wl range.
 !No Temp limits. Wl range : 169.5-281.7nm . T dependency computed in model, subroutine SIGCFC
 Begins at wl interval :        43 | Finishes at wl interval :    88
 ! no  from(nm) to(nm) | crs (cm2)  | qyield (0->1)
  43   169.50   172.40     7.84E-21      1.000
  44   172.40   173.90     1.09E-20      1.000
  45   173.90   175.40     1.35E-20      1.000
  46   175.40   177.00     1.67E-20      1.000
  47   177.00   178.60     2.08E-20      1.000
  48   178.60   180.20     2.55E-20      1.000
  49   180.20   181.80     3.11E-20      1.000
  50   181.80   183.50     3.78E-20      1.000
  51   183.50   185.20     4.56E-20      1.000
  52   185.20   186.90     5.44E-20      1.000
  53   186.90   188.70     6.43E-20      1.000
  54   188.70   190.50     6.87E-20      1.000
  55   190.50   192.30     7.17E-20      1.000
  56   192.30   194.20     8.12E-20      1.000
  57   194.20   196.10     9.07E-20      1.000
  58   196.10   198.00     9.97E-20      1.000
  59   198.00   200.00     1.08E-19      1.000
  60   200.00   202.00     1.15E-19      1.000
  61   202.00   204.10     1.20E-19      1.000
  62   204.10   206.20     1.23E-19      1.000
  63   206.20   208.30     1.24E-19      1.000
  64   208.30   210.50     1.23E-19      1.000
  65   210.50   212.80     1.15E-19      1.000
  66   212.80   215.00     1.07E-19      1.000
  67   215.00   217.40     9.70E-20      1.000
  68   217.40   219.80     8.47E-20      1.000
  69   219.80   222.20     7.20E-20      1.000
  70   222.20   224.70     5.97E-20      1.000
  71   224.70   227.30     4.70E-20      1.000
  72   227.30   229.90     3.59E-20      1.000
  73   229.90   232.60     2.66E-20      1.000
  74   232.60   235.30     1.90E-20      1.000
  75   235.30   238.10     1.29E-20      1.000
  76   238.10   241.00     8.75E-21      1.000
  77   241.00   243.90     5.54E-21      1.000
  78   243.90   246.90     3.46E-21      1.000
  79   246.90   250.00     2.06E-21      1.000
  80   250.00   253.20     1.20E-21      1.000
  81   253.20   256.40     6.68E-22      1.000
  82   256.40   259.70     3.70E-22      1.000
  83   259.70   263.20     6.66E-23      1.000
  84   263.20   266.70     3.23E-23      1.000
  85   266.70   270.30     1.61E-23      1.000
  86   270.30   274.00     8.14E-24      1.000
  87   274.00   277.80     4.21E-24      1.000
  88   277.80   281.70     2.31E-24      1.000
========================================================================================================================
 !iproc :  23: H2O2+hv->OH+OH : T dep.
 !Source : polynom in wl & T of JPL97(table12,p.155), programmed in subrout CRSCOR, between 259.7-352.5nm
 !T range : 200-400K; Source for 180.2-259.5nm where T ind : ?? Total wl range : 180.2-352.5nm
 Begins at wl interval :        49 | Finishes at wl interval :   103
 ! no  from(nm) to(nm) | crs (cm2)  | qyield (0->1)
  49   180.20   181.80     1.60E-18      1.000
  50   181.80   183.50     1.40E-18      1.000
  51   183.50   185.20     1.20E-18      1.000
  52   185.20   186.90     9.40E-19      1.000
  53   186.90   188.70     8.60E-19      1.000
  54   188.70   190.50     8.00E-19      1.000
  55   190.50   192.30     6.42E-19      1.000
  56   192.30   194.20     6.02E-19      1.000
  57   194.20   196.10     5.61E-19      1.000
  58   196.10   198.00     5.27E-19      1.000
  59   198.00   200.00     4.93E-19      1.000
  60   200.00   202.00     4.62E-19      1.000
  61   202.00   204.10     4.34E-19      1.000
  62   204.10   206.20     4.06E-19      1.000
  63   206.20   208.30     3.85E-19      1.000
  64   208.30   210.50     3.63E-19      1.000
  65   210.50   212.80     3.40E-19      1.000
  66   212.80   215.00     3.18E-19      1.000
  67   215.00   217.40     2.95E-19      1.000
  68   217.40   219.80     2.72E-19      1.000
  69   219.80   222.20     2.50E-19      1.000
  70   222.20   224.70     2.30E-19      1.000
  71   224.70   227.30     2.10E-19      1.000
  72   227.30   229.90     1.92E-19      1.000
  73   229.90   232.60     1.74E-19      1.000
  74   232.60   235.30     1.57E-19      1.000
  75   235.30   238.10     1.41E-19      1.000
  76   238.10   241.00     1.26E-19      1.000
  77   241.00   243.90     1.13E-19      1.000
  78   243.90   246.90     1.00E-19      1.000
  79   246.90   250.00     8.89E-20      1.000
  80   250.00   253.20     7.79E-20      1.000
  81   253.20   256.40     6.76E-20      1.000
  82   256.40   259.70     5.85E-20      1.000
  83   259.70   263.20     9.99E-04      1.000
  84   263.20   266.70     9.99E-04      1.000
  85   266.70   270.30     9.99E-04      1.000
  86   270.30   274.00     9.99E-04      1.000
  87   274.00   277.80     9.99E-04      1.000
  88   277.80   281.70     9.99E-04      1.000
  89   281.70   285.70     9.99E-04      1.000
  90   285.70   289.90     9.99E-04      1.000
  91   289.90   294.10     9.99E-04      1.000
  92   294.10   298.50     9.99E-04      1.000
  93   298.50   303.00     9.99E-04      1.000
  94   303.00   307.70     9.99E-04      1.000
  95   307.70   312.50     9.99E-04      1.000
  96   312.50   317.50     9.99E-04      1.000
  97   317.50   322.50     9.99E-04      1.000
  98   322.50   327.50     9.99E-04      1.000
  99   327.50   332.50     9.99E-04      1.000
 100   332.50   337.50     9.99E-04      1.000
 101   337.50   342.50     9.99E-04      1.000
 102   342.50   347.50     9.99E-04      1.000
 103   347.50   352.50     9.99E-04      1.000
========================================================================================================================
 !iproc = 24 : CH2O+hv->H+HCO . T dep. Other branch : iproc=37 : ->H2+CO
 !Sources : JPL97(table22,p.166). crs computed from ta_h2co & tb_h2co (which are identical for iproc=37)
 !with crs(T) = 1.e-20*(ta_h2co+1.e-3*tb_h2co*T) where T(Celsius !). T range : 223.15-293.15 K. wvl range : 298.5-357.5nm
 Begins at wl interval :        93 | Finishes at wl interval :   104
 ! no  from(nm) to(nm) | crs (cm2)  | qyield (0->1) | ta_h2co   | tb_h2co 
  93   298.50   303.00     9.99E-04       .749        1.710       -.712
  94   303.00   307.70     9.99E-04       .753        3.720      -2.607
  95   307.70   312.50     9.99E-04       .743        1.533        .945
  96   312.50   317.50     9.99E-04       .704        3.705      -2.970
  97   317.50   322.50     9.99E-04       .591        1.425       -.431
  98   322.50   327.50     9.99E-04       .456        2.541      -4.371
  99   327.50   332.50     9.99E-04       .301        1.825      -1.840
 100   332.50   337.50     9.99E-04       .130         .122        .241
 101   337.50   342.50     9.99E-04       .018        2.219      -3.550
 102   342.50   347.50     9.99E-04       .000         .681       -.841
 103   347.50   352.50     9.99E-04       .000         .124        .693
 104   352.50   357.50     9.99E-04       .000         .864      -1.390
========================================================================================================================
 !iproc = 25 : BrONO2+hv->products . T indep.
 !Source : JPL97(table55,p.199)
 !range : 201.0 - 500.0 nm
 Begins at wl interval :        60 | Finishes at wl interval :   133
 ! no  from(nm) to(nm) | crs (cm2)  | qyield (0->1)
  60   200.00   202.00     5.25E-18      0.290
  61   202.00   204.10     4.88E-18      0.290
  62   204.10   206.20     4.36E-18      0.290
  63   206.20   208.30     3.89E-18      0.290
  64   208.30   210.50     3.49E-18      0.290
  65   210.50   212.80     3.19E-18      0.290
  66   212.80   215.00     2.98E-18      0.290
  67   215.00   217.40     2.82E-18      0.290
  68   217.40   219.80     2.67E-18      0.290
  69   219.80   222.20     2.56E-18      0.290
  70   222.20   224.70     2.47E-18      0.290
  71   224.70   227.30     2.35E-18      0.290
  72   227.30   229.90     2.19E-18      0.290
  73   229.90   232.60     2.03E-18      0.290
  74   232.60   235.30     1.87E-18      0.290
  75   235.30   238.10     1.68E-18      0.290
  76   238.10   241.00     1.44E-18      0.290
  77   241.00   243.90     1.19E-18      0.290
  78   243.90   246.90     9.75E-19      0.290
  79   246.90   250.00     8.17E-19      0.290
  80   250.00   253.20     6.82E-19      0.290
  81   253.20   256.40     5.57E-19      0.290
  82   256.40   259.70     4.62E-19      0.290
  83   259.70   263.20     3.95E-19      0.290
  84   263.20   266.70     3.51E-19      0.290
  85   266.70   270.30     3.20E-19      0.290
  86   270.30   274.00     2.96E-19      0.290
  87   274.00   277.80     2.76E-19      0.290
  88   277.80   281.70     2.61E-19      0.290
  89   281.70   285.70     2.45E-19      0.290
  90   285.70   289.90     2.28E-19      0.290
  91   289.90   294.10     2.13E-19      0.290
  92   294.10   298.50     1.92E-19      0.290
  93   298.50   303.00     1.66E-19      0.290
  94   303.00   307.70     1.49E-19      0.290
  95   307.70   312.50     1.30E-19      0.290
  96   312.50   317.50     1.20E-19      0.290
  97   317.50   322.50     1.00E-19      0.290
  98   322.50   327.50     9.30E-20      0.290
  99   327.50   332.50     8.40E-20      0.290
 100   332.50   337.50     7.80E-20      0.290
 101   337.50   342.50     7.20E-20      0.290
 102   342.50   347.50     6.80E-20      0.290
 103   347.50   352.50     6.30E-20      0.290
 104   352.50   357.50     5.80E-20      0.290
 105   357.50   362.50     5.40E-20      0.290
 106   362.50   367.50     4.90E-20      0.290
 107   367.50   372.50     4.40E-20      0.290
 108   372.50   377.50     3.90E-20      0.290
 109   377.50   382.50     3.40E-20      0.290
 110   382.50   387.50     3.00E-20      0.290
 111   387.50   392.50     2.60E-20      0.290
 112   392.50   397.50     2.20E-20      0.290
 113   397.50   402.50     2.00E-20      0.290
 114   402.50   407.50     1.70E-20      0.290
 115   407.50   412.50     1.60E-20      0.290
 116   412.50   417.50     1.40E-20      0.290
 117   417.50   422.50     1.30E-20      0.290
 118   422.50   427.50     1.30E-20      0.290
 119   427.50   432.50     1.20E-20      0.290
 120   432.50   437.50     1.10E-20      0.290
 121   437.50   442.50     1.10E-20      0.290
 122   442.50   447.50     1.00E-20      0.290
 123   447.50   452.50     9.10E-21      0.290
 124   452.50   457.50     8.00E-21      0.290
 125   457.50   462.50     7.00E-21      0.290
 126   462.50   467.50     5.90E-21      0.290
 127   467.50   472.50     4.90E-21      0.290
 128   472.50   477.50     3.80E-21      0.290
 129   477.50   482.50     2.90E-21      0.290
 130   482.50   487.50     2.20E-21      0.290
 131   487.50   492.50     1.40E-21      0.290
 132   492.50   497.50     8.60E-22      0.290
 133   497.50   502.50     4.10E-22      0.290
========================================================================================================================
 !iproc = 26 : HOBr+hv->OH+Br : T indep.
 !Source : 240-255 nm: JPL97, 260-545 nm: Ingham et al., J. Phys. Chem., 102, 3293-3298, 1998
 !range : 240 - 545 nm
 Begins at wl interval :        76 | Finishes at wl interval :   141
 ! no  from(nm) to(nm) | crs (cm2)  | qyield (0->1)
  76   238.10   241.00     6.70E-20      1.000
  77   241.00   243.90     5.92E-20      1.000
  78   243.90   246.90     5.42E-20      1.000
  79   246.90   250.00     6.19E-20      1.000
  80   250.00   253.20     7.59E-20      1.000
  81   253.20   256.40     9.55E-20      1.000
  82   256.40   259.70     1.03E-19      1.000
  83   259.70   263.20     1.16E-19      1.000
  84   263.20   266.70     1.45E-19      1.000
  85   266.70   270.30     1.74E-19      1.000
  86   270.30   274.00     2.01E-19      1.000
  87   274.00   277.80     2.24E-19      1.000
  88   277.80   281.70     2.41E-19      1.000
  89   281.70   285.70     2.48E-19      1.000
  90   285.70   289.90     2.44E-19      1.000
  91   289.90   294.10     2.31E-19      1.000
  92   294.10   298.50     2.11E-19      1.000
  93   298.50   303.00     1.86E-19      1.000
  94   303.00   307.70     1.60E-19      1.000
  95   307.70   312.50     1.36E-19      1.000
  96   312.50   317.50     1.19E-19      1.000
  97   317.50   322.50     1.09E-19      1.000
  98   322.50   327.50     1.06E-19      1.000
  99   327.50   332.50     1.08E-19      1.000
 100   332.50   337.50     1.13E-19      1.000
 101   337.50   342.50     1.19E-19      1.000
 102   342.50   347.50     1.23E-19      1.000
 103   347.50   352.50     1.24E-19      1.000
 104   352.50   357.50     1.21E-19      1.000
 105   357.50   362.50     1.15E-19      1.000
 106   362.50   367.50     1.05E-19      1.000
 107   367.50   372.50     9.28E-20      1.000
 108   372.50   377.50     7.97E-20      1.000
 109   377.50   382.50     6.63E-20      1.000
 110   382.50   387.50     5.36E-20      1.000
 111   387.50   392.50     4.21E-20      1.000
 112   392.50   397.50     3.23E-20      1.000
 113   397.50   402.50     2.43E-20      1.000
 114   402.50   407.50     1.80E-20      1.000
 115   407.50   412.50     1.37E-20      1.000
 116   412.50   417.50     1.10E-20      1.000
 117   417.50   422.50     9.85E-21      1.000
 118   422.50   427.50     1.01E-20      1.000
 119   427.50   432.50     1.16E-20      1.000
 120   432.50   437.50     1.40E-20      1.000
 121   437.50   442.50     1.67E-20      1.000
 122   442.50   447.50     1.95E-20      1.000
 123   447.50   452.50     2.16E-20      1.000
 124   452.50   457.50     2.27E-20      1.000
 125   457.50   462.50     2.26E-20      1.000
 126   462.50   467.50     2.13E-20      1.000
 127   467.50   472.50     1.90E-20      1.000
 128   472.50   477.50     1.61E-20      1.000
 129   477.50   482.50     1.29E-20      1.000
 130   482.50   487.50     9.87E-21      1.000
 131   487.50   492.50     7.19E-21      1.000
 132   492.50   497.50     4.99E-21      1.000
 133   497.50   502.50     3.32E-21      1.000
 134   502.50   507.50     2.11E-21      1.000
 135   507.50   512.50     1.28E-21      1.000
 136   512.50   517.50     7.47E-22      1.000 
 137   517.50   522.50     4.20E-22      1.000
 138   522.50   527.50     2.27E-22      1.000
 139   527.50   532.50     1.17E-22      1.000 
 140   532.50   537.50     5.89E-23      1.000
 141   537.50   542.50     2.08E-23      1.000
========================================================================================================================
 !iproc = 27: CH3Br+hv->products : T dep.
 !Sources : P.Simon : Aeronomica Acta ?? : OK w/JPL97(table57,p.201) but extended wl range.
 !No Temp limits. Wl range : 183.5-259.7nm . T dependency computed in model, subroutine SIGCFC
 Begins at wl interval :        51 | Finishes at wl interval :    82
 ! no  from(nm) to(nm) | crs (cm2)  | qyield (0->1)
  51   183.50   185.20     1.20E-19      1.000
  52   185.20   186.90     2.40E-19      1.000
  53   186.90   188.70     3.80E-19      1.000
  54   188.70   190.50     4.30E-19      1.000
  55   190.50   192.30     5.03E-19      1.000
  56   192.30   194.20     5.86E-19      1.000
  57   194.20   196.10     6.60E-19      1.000
  58   196.10   198.00     7.27E-19      1.000
  59   198.00   200.00     7.75E-19      1.000
  60   200.00   202.00     7.95E-19      1.000
  61   202.00   204.10     8.05E-19      1.000
  62   204.10   206.20     7.78E-19      1.000
  63   206.20   208.30     7.45E-19      1.000
  64   208.30   210.50     6.88E-19      1.000
  65   210.50   212.80     6.20E-19      1.000
  66   212.80   215.00     5.62E-19      1.000
  67   215.00   217.40     4.85E-19      1.000
  68   217.40   219.80     4.22E-19      1.000
  69   219.80   222.20     3.50E-19      1.000
  70   222.20   224.70     2.91E-19      1.000
  71   224.70   227.30     2.30E-19      1.000
  72   227.30   229.90     1.78E-19      1.000
  73   229.90   232.60     1.31E-19      1.000
  74   232.60   235.30     9.95E-20      1.000
  75   235.30   238.10     7.00E-20      1.000
  76   238.10   241.00     4.81E-20      1.000
  77   241.00   243.90     3.12E-20      1.000
  78   243.90   246.90     2.01E-20      1.000
  79   246.90   250.00     1.22E-20      1.000
  80   250.00   253.20     7.44E-21      1.000
  81   253.20   256.40     4.30E-21      1.000
  82   256.40   259.70     2.28E-21      1.000
========================================================================================================================
 !iproc = 28 : OClO+hv->O+ClO . T indep.
 !Sources : Interpolated from Wahner, Tyndall & al.,J.Phys.Chem.,1987,91,2734-2738, at T=204K
 !range : 243.9-472.5 nm.
 Begins at wl interval :        78 | Finishes at wl interval :   127
 ! no  from(nm) to(nm) | crs (cm2)  | qyield (0->1)
  78   243.90   246.90     3.66E-19      1.000
  79   246.90   250.00     3.43E-19      1.000
  80   250.00   253.20     3.44E-19      1.000
  81   253.20   256.40     3.46E-19      1.000
  82   256.40   259.70     3.50E-19      1.000
  83   259.70   263.20     3.70E-19      1.000
  84   263.20   266.70     3.89E-19      1.000
  85   266.70   270.30     4.30E-19      1.000
  86   270.30   274.00     4.79E-19      1.000
  87   274.00   277.80     5.41E-19      1.000
  88   277.80   281.70     6.25E-19      1.000
  89   281.70   285.70     7.37E-19      1.000
  90   285.70   289.90     8.81E-19      1.000
  91   289.90   294.10     1.06E-18      1.000
  92   294.10   298.50     1.31E-18      1.000
  93   298.50   303.00     1.66E-18      1.000
  94   303.00   307.70     2.05E-18      1.000
  95   307.70   312.50     2.47E-18      1.000
  96   312.50   317.50     2.60E-18      1.000
  97   317.50   322.50     2.04E-18      1.000
  98   322.50   327.50     3.59E-18      1.000
  99   327.50   332.50     4.59E-18      1.000
 100   332.50   337.50     5.20E-18      1.000
 101   337.50   342.50     2.49E-18      1.000
 102   342.50   347.50     5.47E-18      1.000
 103   347.50   352.50     6.54E-18      1.000
 104   352.50   357.50     2.58E-18      1.000
 105   357.50   362.50     6.57E-18      1.000
 106   362.50   367.50     3.54E-18      1.000
 107   367.50   372.50     4.77E-18      1.000
 108   372.50   377.50     4.34E-18      1.000
 109   377.50   382.50     3.07E-18      1.000
 110   382.50   387.50     4.27E-18      1.000
 111   387.50   392.50     2.12E-18      1.000
 112   392.50   397.50     2.78E-18      1.000
 113   397.50   402.50     2.19E-18      1.000
 114   402.50   407.50     1.59E-18      1.000
 115   407.50   412.50     1.93E-18      1.000
 116   412.50   417.50     7.73E-19      1.000
 117   417.50   422.50     1.48E-18      1.000
 118   422.50   427.50     3.04E-19      1.000
 119   427.50   432.50     5.11E-19      1.000
 120   432.50   437.50     5.80E-19      1.000
 121   437.50   442.50     1.94E-19      1.000
 122   442.50   447.50     2.57E-19      1.000
 123   447.50   452.50     7.56E-20      1.000
 124   452.50   457.50     6.55E-20      1.000
 125   457.50   462.50     9.04E-20      1.000
 126   462.50   467.50     5.93E-20      1.000
 127   467.50   472.50     8.43E-20      1.000
========================================================================================================================
 !iproc = 29 : Cl2O2+hv->products . T indep.
 !Sources : JPL97(table30,p.177)
 !JPL recommends Cl+ClOO as products, with qy=1. range : 190.5 - 447.5 nm
 Begins at wl interval :        55 | Finishes at wl interval :   122
 ! no  from(nm) to(nm) | crs (cm2)  | qyield (0->1)
  55   190.50   192.30     5.38E-18      1.000
  56   192.30   194.20     5.03E-18      1.000
  57   194.20   196.10     4.67E-18      1.000
  58   196.10   198.00     4.31E-18      1.000
  59   198.00   200.00     3.98E-18      1.000
  60   200.00   202.00     3.68E-18      1.000
  61   202.00   204.10     3.38E-18      1.000
  62   204.10   206.20     3.10E-18      1.000
  63   206.20   208.30     2.84E-18      1.000
  64   208.30   210.50     2.58E-18      1.000
  65   210.50   212.80     2.35E-18      1.000
  66   212.80   215.00     2.18E-18      1.000
  67   215.00   217.40     2.08E-18      1.000
  68   217.40   219.80     2.08E-18      1.000
  69   219.80   222.20     2.20E-18      1.000
  70   222.20   224.70     2.44E-18      1.000
  71   224.70   227.30     2.82E-18      1.000
  72   227.30   229.90     3.33E-18      1.000
  73   229.90   232.60     3.97E-18      1.000
  74   232.60   235.30     4.66E-18      1.000
  75   235.30   238.10     5.33E-18      1.000
  76   238.10   241.00     5.91E-18      1.000
  77   241.00   243.90     6.28E-18      1.000
  78   243.90   246.90     6.41E-18      1.000
  79   246.90   250.00     6.25E-18      1.000
  80   250.00   253.20     5.85E-18      1.000
  81   253.20   256.40     5.29E-18      1.000
  82   256.40   259.70     4.62E-18      1.000
  83   259.70   263.20     3.93E-18      1.000
  84   263.20   266.70     3.29E-18      1.000
  85   266.70   270.30     2.77E-18      1.000
  86   270.30   274.00     2.36E-18      1.000
  87   274.00   277.80     2.03E-18      1.000
  88   277.80   281.70     1.74E-18      1.000
  89   281.70   285.70     1.49E-18      1.000
  90   285.70   289.90     1.26E-18      1.000
  91   289.90   294.10     1.05E-18      1.000
  92   294.10   298.50     8.59E-19      1.000
  93   298.50   303.00     6.99E-19      1.000
  94   303.00   307.70     5.60E-19      1.000
  95   307.70   312.50     4.32E-19      1.000
  96   312.50   317.50     3.28E-19      1.000
  97   317.50   322.50     2.57E-19      1.000
  98   322.50   327.50     2.04E-19      1.000
  99   327.50   332.50     1.67E-19      1.000
 100   332.50   337.50     1.40E-19      1.000
 101   337.50   342.50     1.22E-19      1.000
 102   342.50   347.50     1.04E-19      1.000
 103   347.50   352.50     8.35E-20      1.000
 104   352.50   357.50     6.54E-20      1.000
 105   357.50   362.50     5.29E-20      1.000
 106   362.50   367.50     3.96E-20      1.000
 107   367.50   372.50     3.20E-20      1.000
 108   372.50   377.50     2.55E-20      1.000
 109   377.50   382.50     2.07E-20      1.000
 110   382.50   387.50     1.65E-20      1.000
 111   387.50   392.50     1.30E-20      1.000
 112   392.50   397.50     1.05E-20      1.000
 113   397.50   402.50     8.50E-21      1.000
 114   402.50   407.50     6.82E-21      1.000
 115   407.50   412.50     5.46E-21      1.000
 116   412.50   417.50     4.40E-21      1.000
 117   417.50   422.50     3.50E-21      1.000
 118   422.50   427.50     2.81E-21      1.000
 119   427.50   432.50     2.30E-21      1.000
 120   432.50   437.50     1.81E-21      1.000
 121   437.50   442.50     1.47E-21      1.000
 122   442.50   447.50     1.15E-21      1.000
========================================================================================================================
 !iproc = 30: Cl2+hv->Cl+Cl . T INDEP. Source : L S.Hubinger,J.B.Nee,J.Photochem.Photobiol. A :Chem.,86,pp.1-7,1995
 !Same results as JPL97 for cheaper cost.
 !Range : 190.5-497.5nm
 Begins at wl interval :        55 | Finishes at wl interval :   132
 ! no  from(nm) to(nm) | crs (cm2)  | qyield (0->1)
  55   190.50   192.30     8.72E-22      1.000
  56   192.30   194.20     8.35E-22      1.000
  57   194.20   196.10     7.97E-22      1.000
  58   196.10   198.00     7.59E-22      1.000
  59   198.00   200.00     7.20E-22      1.000
  60   200.00   202.00     6.80E-22      1.000
  61   202.00   204.10     6.39E-22      1.000
  62   204.10   206.20     5.97E-22      1.000
  63   206.20   208.30     5.55E-22      1.000
  64   208.30   210.50     5.13E-22      1.000
  65   210.50   212.80     5.00E-22      1.000
  66   212.80   215.00     5.00E-22      1.000
  67   215.00   217.40     5.00E-22      1.000
  68   217.40   219.80     5.00E-22      1.000
  69   219.80   222.20     5.00E-22      1.000
  70   222.20   224.70     5.00E-22      1.000
  71   224.70   227.30     5.00E-22      1.000
  72   227.30   229.90     5.00E-22      1.000
  73   229.90   232.60     4.87E-22      1.000
  74   232.60   235.30     4.60E-22      1.000
  75   235.30   238.10     4.33E-22      1.000
  76   238.10   241.00     4.06E-22      1.000
  77   241.00   243.90     4.00E-22      1.000
  78   243.90   246.90     4.00E-22      1.000
  79   246.90   250.00     4.00E-22      1.000
  80   250.00   253.20     9.28E-22      1.000
  81   253.20   256.40     1.98E-21      1.000
  82   256.40   259.70     3.06E-21      1.000
  83   259.70   263.20     4.46E-21      1.000
  84   263.20   266.70     6.27E-21      1.000
  85   266.70   270.30     8.13E-21      1.000
  86   270.30   274.00     1.24E-20      1.000
  87   274.00   277.80     1.84E-20      1.000
  88   277.80   281.70     2.53E-20      1.000
  89   281.70   285.70     3.80E-20      1.000
  90   285.70   289.90     5.23E-20      1.000
  91   289.90   294.10     7.06E-20      1.000
  92   294.10   298.50     9.34E-20      1.000
  93   298.50   303.00     1.18E-19      1.000
  94   303.00   307.70     1.46E-19      1.000
  95   307.70   312.50     1.75E-19      1.000
  96   312.50   317.50     2.04E-19      1.000
  97   317.50   322.50     2.30E-19      1.000
  98   322.50   327.50     2.42E-19      1.000
  99   327.50   332.50     2.50E-19      1.000
 100   332.50   337.50     2.44E-19      1.000
 101   337.50   342.50     2.35E-19      1.000
 102   342.50   347.50     2.15E-19      1.000
 103   347.50   352.50     1.92E-19      1.000
 104   352.50   357.50     1.62E-19      1.000
 105   357.50   362.50     1.32E-19      1.000
 106   362.50   367.50     1.07E-19      1.000
 107   367.50   372.50     8.49E-20      1.000
 108   372.50   377.50     6.80E-20      1.000
 109   377.50   382.50     5.27E-20      1.000
 110   382.50   387.50     4.15E-20      1.000
 111   387.50   392.50     3.16E-20      1.000
 112   392.50   397.50     2.50E-20      1.000
 113   397.50   402.50     1.94E-20      1.000
 114   402.50   407.50     1.65E-20      1.000
 115   407.50   412.50     1.41E-20      1.000
 116   412.50   417.50     1.20E-20      1.000
 117   417.50   422.50     1.01E-20      1.000
 118   422.50   427.50     8.80E-21      1.000
 119   427.50   432.50     7.64E-21      1.000
 120   432.50   437.50     6.70E-21      1.000
 121   437.50   442.50     5.83E-21      1.000
 122   442.50   447.50     5.15E-21      1.000
 123   447.50   452.50     4.48E-21      1.000
 124   452.50   457.50     3.70E-21      1.000
 125   457.50   462.50     2.92E-21      1.000
 126   462.50   467.50     2.30E-21      1.000
 127   467.50   472.50     1.72E-21      1.000
 128   472.50   477.50     1.30E-21      1.000
 129   477.50   482.50     9.37E-22      1.000
 130   482.50   487.50     8.00E-22      1.000
 131   487.50   492.50     7.00E-22      1.000
 132   492.50   497.50     6.00E-22      1.000
========================================================================================================================
 !iproc = 31 : CCl2O+hv->products : T indep.
 !Source :  JPL97(table45,p.190)
 !Range : 183.5 - 227.3 nm
 Begins at wl interval :        51 | Finishes at wl interval :    71
 ! no  from(nm) to(nm) | crs (cm2)  | qyield (0->1)
  51   183.50   185.20     2.04E-18      1.000
  52   185.20   186.90     1.89E-18      1.000
  53   186.90   188.70     1.37E-18      1.000
  54   188.70   190.50     1.17E-18      1.000
  55   190.50   192.30     9.37E-19      1.000
  56   192.30   194.20     6.97E-19      1.000
  57   194.20   196.10     5.25E-19      1.000
  58   196.10   198.00     4.10E-19      1.000
  59   198.00   200.00     3.18E-19      1.000
  60   200.00   202.00     2.50E-19      1.000
  61   202.00   204.10     2.04E-19      1.000
  62   204.10   206.20     1.69E-19      1.000
  63   206.20   208.30     1.51E-19      1.000
  64   208.30   210.50     1.34E-19      1.000
  65   210.50   212.80     1.22E-19      1.000
  66   212.80   215.00     1.17E-19      1.000
  67   215.00   217.40     1.16E-19      1.000
  68   217.40   219.80     1.19E-19      1.000
  69   219.80   222.20     1.23E-19      1.000
  70   222.20   224.70     1.28E-19      1.000
  71   224.70   227.30     1.32E-19      1.000
========================================================================================================================
 !iproc = 32 : CClFO+hv->products . Tindep. 
 !Source : JPL97(table45,p.190)
 !Range : 185.2 - 227.3 nm
 Begins at wl interval :        52 | Finishes at wl interval :    71
 ! no  from(nm) to(nm) | crs (cm2)  | qyield (0->1)
  52   185.20   186.90     1.56E-19      1.000
  53   186.90   188.70     1.40E-19      1.000
  54   188.70   190.50     1.34E-19      1.000
  55   190.50   192.30     1.29E-19      1.000
  56   192.30   194.20     1.27E-19      1.000
  57   194.20   196.10     1.25E-19      1.000
  58   196.10   198.00     1.24E-19      1.000
  59   198.00   200.00     1.23E-19      1.000
  60   200.00   202.00     1.20E-19      1.000
  61   202.00   204.10     1.17E-19      1.000
  62   204.10   206.20     1.12E-19      1.000
  63   206.20   208.30     1.05E-19      1.000
  64   208.30   210.50     9.70E-20      1.000
  65   210.50   212.80     9.00E-20      1.000
  66   212.80   215.00     7.90E-20      1.000
  67   215.00   217.40     6.90E-20      1.000
  68   217.40   219.80     5.80E-20      1.000
  69   219.80   222.20     4.80E-20      1.000
  70   222.20   224.70     4.00E-20      1.000
  71   224.70   227.30     3.10E-20      1.000
========================================================================================================================
 !iproc = 33 : CF2O+hv->products . Tindep. qyield = 0.25 in model !
 !..product regenerates CF2O->apparent qy<1.' . Source : JPL97(table43,p.190)
 !Range : 185.2 - 224.7 nm
 Begins at wl interval :        52 | Finishes at wl interval :    70
 ! no  from(nm) to(nm) | crs (cm2)  | qyield (0->1)
  52   185.20   186.90     5.50E-20       .250
  53   186.90   188.70     4.80E-20       .250
  54   188.70   190.50     4.20E-20       .250
  55   190.50   192.30     3.70E-20       .250
  56   192.30   194.20     3.10E-20       .250
  57   194.20   196.10     2.60E-20       .250
  58   196.10   198.00     2.10E-20       .250
  59   198.00   200.00     1.60E-20       .250
  60   200.00   202.00     1.30E-20       .250
  61   202.00   204.10     9.50E-21       .250
  62   204.10   206.20     6.90E-21       .250
  63   206.20   208.30     5.00E-21       .250
  64   208.30   210.50     3.40E-21       .250
  65   210.50   212.80     2.30E-21       .250
  66   212.80   215.00     1.50E-21       .250
  67   215.00   217.40     1.00E-21       .250
  68   217.40   219.80     6.00E-22       .250
  69   219.80   222.20     4.00E-22       .250
  70   222.20   224.70     3.00E-22       .250
========================================================================================================================
 !iproc = 34 : CFC114+hv->products . T dep. 
 !Sources : P.Simon : Aeronomica Acta ?? : same as JPL97(table44,p.189)
 !No Temp limits. Wl range : 172.4-219.8nm . T dependency computed in model, subroutine SIGCFC
 Begins at wl interval :        44 | Finishes at wl interval :    68
 ! no  from(nm) to(nm) | crs (cm2)  | qyield (0->1)
  44   172.40   173.90     6.09E-19      1.000
  45   173.90   175.40     5.11E-19      1.000
  46   175.40   177.00     4.21E-19      1.000
  47   177.00   178.60     3.49E-19      1.000
  48   178.60   180.20     2.84E-19      1.000
  49   180.20   181.80     2.29E-19      1.000
  50   181.80   183.50     1.82E-19      1.000
  51   183.50   185.20     1.43E-19      1.000
  52   185.20   186.90     1.09E-19      1.000
  53   186.90   188.70     8.12E-20      1.000
  54   188.70   190.50     5.84E-20      1.000
  55   190.50   192.30     4.19E-20      1.000
  56   192.30   194.20     2.99E-20      1.000
  57   194.20   196.10     2.09E-20      1.000
  58   196.10   198.00     1.46E-20      1.000
  59   198.00   200.00     1.00E-20      1.000
  60   200.00   202.00     6.70E-21      1.000
  61   202.00   204.10     4.50E-21      1.000
  62   204.10   206.20     2.95E-21      1.000
  63   206.20   208.30     1.90E-21      1.000
  64   208.30   210.50     1.21E-21      1.000
  65   210.50   212.80     7.43E-22      1.000
  66   212.80   215.00     4.52E-22      1.000
  67   215.00   217.40     2.80E-22      1.000
  68   217.40   219.80     1.70E-22      1.000
========================================================================================================================
 !iproc = 35 : CFC115+hv->products . T indep. 
 !Source : JPL97(table44,p.189)
 !Range : 172.4-204.1 nm . 
 Begins at wl interval :        44 | Finishes at wl interval :    61
 ! no  from(nm) to(nm) | crs (cm2)  | qyield (0->1)
  44   172.40   173.90     4.73E-20      1.000
  45   173.90   175.40     3.66E-20      1.000
  46   175.40   177.00     2.77E-20      1.000
  47   177.00   178.60     2.13E-20      1.000
  48   178.60   180.20     1.63E-20      1.000
  49   180.20   181.80     1.25E-20      1.000
  50   181.80   183.50     9.52E-21      1.000
  51   183.50   185.20     7.11E-21      1.000
  52   185.20   186.90     5.26E-21      1.000
  53   186.90   188.70     3.95E-21      1.000
  54   188.70   190.50     2.92E-21      1.000
  55   190.50   192.30     2.14E-21      1.000
  56   192.30   194.20     1.52E-21      1.000
  57   194.20   196.10     1.07E-21      1.000
  58   196.10   198.00     7.58E-22      1.000
  59   198.00   200.00     5.35E-22      1.000
  60   200.00   202.00     3.75E-22      1.000
  61   202.00   204.10     2.57E-22      1.000
========================================================================================================================
 !iproc = 36 : HCl+hv->H+Cl . T indep.
 !Source : JPL97(table34,p.179)
 !Range : 138.9 - 219.8 nm
 Begins at wl interval :        30 | Finishes at wl interval :    68
 ! no  from(nm) to(nm) | crs (cm2)  | qyield (0->1)
  30   138.90   140.80     2.10E-18      1.000
  31   140.80   142.80     2.36E-18      1.000
  32   142.80   144.90     2.65E-18      1.000
  33   144.90   147.00     2.93E-18      1.000
  34   147.00   149.20     3.21E-18      1.000
  35   149.20   151.50     3.48E-18      1.000
  36   151.50   153.80     3.65E-18      1.000
  37   153.80   156.20     3.82E-18      1.000
  38   156.20   158.70     3.57E-18      1.000
  39   158.70   161.30     3.32E-18      1.000
  40   161.30   163.90     2.88E-18      1.000
  41   163.90   166.70     2.43E-18      1.000
  42   166.70   169.50     1.95E-18      1.000
  43   169.50   172.40     1.53E-18      1.000
  44   172.40   173.90     1.29E-18      1.000
  45   173.90   175.40     1.13E-18      1.000
  46   175.40   177.00     9.69E-19      1.000
  47   177.00   178.60     8.09E-19      1.000
  48   178.60   180.20     6.48E-19      1.000
  49   180.20   181.80     5.33E-19      1.000
  50   181.80   183.50     4.42E-19      1.000
  51   183.50   185.20     3.49E-19      1.000
  52   185.20   186.90     2.78E-19      1.000
  53   186.90   188.70     2.19E-19      1.000
  54   188.70   190.50     1.58E-19      1.000
  55   190.50   192.30     1.22E-19      1.000
  56   192.30   194.20     9.09E-20      1.000
  57   194.20   196.10     6.07E-20      1.000
  58   196.10   198.00     4.69E-20      1.000
  59   198.00   200.00     3.28E-20      1.000
  60   200.00   202.00     2.24E-20      1.000
  61   202.00   204.10     1.60E-20      1.000
  62   204.10   206.20     9.65E-21      1.000
  63   206.20   208.30     7.18E-21      1.000
  64   208.30   210.50     4.65E-21      1.000
  65   210.50   212.80     3.10E-21      1.000
  66   212.80   215.00     1.94E-21      1.000
  67   215.00   217.40     1.16E-21      1.000
  68   217.40   219.80     7.29E-22      1.000
========================================================================================================================
 !iproc = 37 : CH2O+hv->H2+CO . T dep. Other branch : iproc=24 : ->H+HCO
 !Sources : JPL97(table22,p.166). crs computed from ta_h2co & tb_h2co (which are identical for iproc=24)
 !with crs(T) = 1.e-20*(ta_h2co+1.e-3*tb_h2co*T) where T(Celsius !). T range : 223.15-293.15 K. wvl range : 298.5-357.5nm
 Begins at wl interval :        93 | Finishes at wl interval :   104
 ! no  from(nm) to(nm) | crs (cm2)  | qyield (0->1) | ta_h2co   | tb_h2co 
  93   298.50   303.00     9.99E-04       .251        1.710       -.712
  94   303.00   307.70     9.99E-04       .247        3.720      -2.607
  95   307.70   312.50     9.99E-04       .257        1.533        .945
  96   312.50   317.50     9.99E-04       .296        3.705      -2.970
  97   317.50   322.50     9.99E-04       .396        1.425       -.431
  98   322.50   327.50     9.99E-04       .515        2.541      -4.371
  99   327.50   332.50     9.99E-04       .666        1.825      -1.840
 100   332.50   337.50     9.99E-04       .733         .122        .241
 101   337.50   342.50     9.99E-04       .634        2.219      -3.550
 102   342.50   347.50     9.99E-04       .502         .681       -.841
 103   347.50   352.50     9.99E-04       .371         .124        .693
 104   352.50   357.50     9.99E-04       .231         .864      -1.390
========================================================================================================================
 !iproc = 38 : CH3OOH+hv->products . T indep.
 !Source : JPL97(table24,p.167)
 !range : 208.3 - 362.5 nm
 Begins at wl interval :        64 | Finishes at wl interval :   105
 ! no  from(nm) to(nm) | crs (cm2)  | qyield (0->1)
  64   208.30   210.50     3.10E-19      1.000
  65   210.50   212.80     3.01E-19      1.000
  66   212.80   215.00     2.64E-19      1.000
  67   215.00   217.40     2.17E-19      1.000
  68   217.40   219.80     1.73E-19      1.000
  69   219.80   222.20     1.43E-19      1.000
  70   222.20   224.70     1.24E-19      1.000
  71   224.70   227.30     1.11E-19      1.000
  72   227.30   229.90     1.01E-19      1.000
  73   229.90   232.60     9.14E-20      1.000
  74   232.60   235.30     8.09E-20      1.000
  75   235.30   238.10     7.08E-20      1.000
  76   238.10   241.00     6.17E-20      1.000
  77   241.00   243.90     5.43E-20      1.000
  78   243.90   246.90     4.80E-20      1.000
  79   246.90   250.00     4.24E-20      1.000
  80   250.00   253.20     3.71E-20      1.000
  81   253.20   256.40     3.22E-20      1.000
  82   256.40   259.70     2.78E-20      1.000
  83   259.70   263.20     2.40E-20      1.000
  84   263.20   266.70     2.09E-20      1.000
  85   266.70   270.30     1.81E-20      1.000
  86   270.30   274.00     1.55E-20      1.000
  87   274.00   277.80     1.31E-20      1.000
  88   277.80   281.70     1.10E-20      1.000
  89   281.70   285.70     9.23E-21      1.000
  90   285.70   289.90     7.66E-21      1.000
  91   289.90   294.10     6.24E-21      1.000
  92   294.10   298.50     4.99E-21      1.000
  93   298.50   303.00     3.93E-21      1.000
  94   303.00   307.70     3.07E-21      1.000
  95   307.70   312.50     2.38E-21      1.000
  96   312.50   317.50     1.84E-21      1.000
  97   317.50   322.50     1.40E-21      1.000
  98   322.50   327.50     1.05E-21      1.000
  99   327.50   332.50     7.90E-22      1.000
 100   332.50   337.50     6.04E-22      1.000
 101   337.50   342.50     4.70E-22      1.000
 102   342.50   347.50     3.64E-22      1.000
 103   347.50   352.50     2.70E-22      1.000
 104   352.50   357.50     1.91E-22      1.000
 105   357.50   362.50     1.60E-22      1.000
========================================================================================================================
 !iproc = 39 : CH3CO3+hv->products : TO ADD !!
 !Sources : ??
 !Range : ??
 Begins at wl interval :         1 | Finishes at wl interval :     1
 ! no  from(nm) to(nm) | crs (cm2)  | qyield (0->1)
   1   116.30   117.00     9.99E-04      1.000
========================================================================================================================
 !iproc = 40 : CH3CO3NO2(pan)+hv->products . T dep.
 !Source : R.K.Talukdar &al., JGR,Vol.100,No D7,pp.14163-14173,1995. Similar to JPL97
 !T dep formula : crs(T) = crs(298)*exp(tb_pan*(T-298)) , T(K). T range : 250-298 K. Wl range : 196.1-347.5nm
 Begins at wl interval :        58 | Finishes at wl interval :   102
 ! no  from(nm) to(nm) | crs (cm2)  |qyield(0->1)| tb_pan
  58   196.10   198.00     4.13E-18      1.000    1.868E-03
  59   198.00   200.00     3.80E-18      1.000    1.545E-03
  60   200.00   202.00     3.43E-18      1.000    1.215E-03
  61   202.00   204.10     3.08E-18      1.000    9.599E-04
  62   204.10   206.20     2.74E-18      1.000    7.971E-04
  63   206.20   208.30     2.39E-18      1.000    7.259E-04
  64   208.30   210.50     2.05E-18      1.000    7.394E-04
  65   210.50   212.80     1.73E-18      1.000    8.270E-04
  66   212.80   215.00     1.45E-18      1.000    9.658E-04
  67   215.00   217.40     1.21E-18      1.000    1.139E-03
  68   217.40   219.80     9.98E-19      1.000    1.344E-03
  69   219.80   222.20     8.37E-19      1.000    1.555E-03
  70   222.20   224.70     7.05E-19      1.000    1.763E-03
  71   224.70   227.30     5.95E-19      1.000    1.978E-03
  72   227.30   229.90     5.02E-19      1.000    2.188E-03
  73   229.90   232.60     4.24E-19      1.000    2.400E-03
  74   232.60   235.30     3.57E-19      1.000    2.626E-03
  75   235.30   238.10     3.02E-19      1.000    2.856E-03
  76   238.10   241.00     2.52E-19      1.000    3.075E-03
  77   241.00   243.90     2.09E-19      1.000    3.281E-03
  78   243.90   246.90     1.73E-19      1.000    3.480E-03
  79   246.90   250.00     1.42E-19      1.000    3.667E-03
  80   250.00   253.20     1.17E-19      1.000    3.848E-03
  81   253.20   256.40     9.56E-20      1.000    4.029E-03
  82   256.40   259.70     7.80E-20      1.000    4.238E-03
  83   259.70   263.20     6.25E-20      1.000    4.489E-03
  84   263.20   266.70     4.91E-20      1.000    4.746E-03
  85   266.70   270.30     3.80E-20      1.000    5.015E-03
  86   270.30   274.00     2.85E-20      1.000    5.358E-03
  87   274.00   277.80     2.10E-20      1.000    5.752E-03
  88   277.80   281.70     1.50E-20      1.000    6.174E-03
  89   281.70   285.70     1.04E-20      1.000    6.632E-03
  90   285.70   289.90     6.75E-21      1.000    7.123E-03
  91   289.90   294.10     4.50E-21      1.000    7.627E-03
  92   294.10   298.50     2.93E-21      1.000    8.102E-03
  93   298.50   303.00     1.78E-21      1.000    8.503E-03
  94   303.00   307.70     1.09E-21      1.000    8.837E-03
  95   307.70   312.50     6.66E-22      1.000    9.152E-03
  96   312.50   317.50     4.14E-22      1.000    9.517E-03
  97   317.50   322.50     2.51E-22      1.000    9.985E-03
  98   322.50   327.50     1.54E-22      1.000    1.049E-02
  99   327.50   332.50     1.03E-22      1.000    1.093E-02
 100   332.50   337.50     6.56E-23      1.000    1.159E-02
 101   337.50   342.50     4.66E-23      1.000    1.217E-02
 102   342.50   347.50     2.51E-23      1.000    6.239E-03
========================================================================================================================
 !iproc = 41: ClNO2+hv->products : T indep. DO NOT CONFUSE WITH ClONO !! .
 !Source : JPL97(table38,p183) which recommends CL+NO2 as products .
 !Range : 188.7-372.5 nm
 Begins at wl interval :        54 | Finishes at wl interval :   107
 ! no  from(nm) to(nm) | crs (cm2)  | qyield (0->1)
  54   188.70   190.50     2.67E-17      1.000
  55   190.50   192.30     2.51E-17      1.000
  56   192.30   194.20     1.94E-17      1.000
  57   194.20   196.10     1.31E-17      1.000
  58   196.10   198.00     8.36E-18      1.000
  59   198.00   200.00     5.44E-18      1.000
  60   200.00   202.00     3.95E-18      1.000
  61   202.00   204.10     3.30E-18      1.000
  62   204.10   206.20     3.11E-18      1.000
  63   206.20   208.30     3.16E-18      1.000
  64   208.30   210.50     3.33E-18      1.000
  65   210.50   212.80     3.50E-18      1.000
  66   212.80   215.00     3.58E-18      1.000
  67   215.00   217.40     3.59E-18      1.000
  68   217.40   219.80     3.50E-18      1.000
  69   219.80   222.20     3.34E-18      1.000
  70   222.20   224.70     3.11E-18      1.000
  71   224.70   227.30     2.83E-18      1.000
  72   227.30   229.90     2.53E-18      1.000
  73   229.90   232.60     2.21E-18      1.000
  74   232.60   235.30     1.91E-18      1.000
  75   235.30   238.10     1.64E-18      1.000
  76   238.10   241.00     1.43E-18      1.000
  77   241.00   243.90     1.27E-18      1.000
  78   243.90   246.90     1.14E-18      1.000
  79   246.90   250.00     1.04E-18      1.000
  80   250.00   253.20     9.28E-19      1.000
  81   253.20   256.40     8.13E-19      1.000
  82   256.40   259.70     7.00E-19      1.000
  83   259.70   263.20     5.92E-19      1.000
  84   263.20   266.70     4.92E-19      1.000
  85   266.70   270.30     4.05E-19      1.000
  86   270.30   274.00     3.28E-19      1.000
  87   274.00   277.80     2.67E-19      1.000
  88   277.80   281.70     2.25E-19      1.000
  89   281.70   285.70     2.00E-19      1.000
  90   285.70   289.90     1.86E-19      1.000
  91   289.90   294.10     1.75E-19      1.000
  92   294.10   298.50     1.64E-19      1.000
  93   298.50   303.00     1.53E-19      1.000
  94   303.00   307.70     1.40E-19      1.000
  95   307.70   312.50     1.24E-19      1.000
  96   312.50   317.50     1.06E-19      1.000
  97   317.50   322.50     8.70E-20      1.000
  98   322.50   327.50     7.00E-20      1.000
  99   327.50   332.50     5.58E-20      1.000
 100   332.50   337.50     4.39E-20      1.000
 101   337.50   342.50     3.33E-20      1.000
 102   342.50   347.50     2.40E-20      1.000
 103   347.50   352.50     1.78E-20      1.000
 104   352.50   357.50     1.43E-20      1.000
 105   357.50   362.50     1.14E-20      1.000
 106   362.50   367.50     8.45E-21      1.000
 107   367.50   372.50     7.19E-21      1.000
========================================================================================================================
 !iproc = 42 : NO3+hv->NO2+O . T ind. Branch also called NO3a. Other branch, NO3b : iproc=48 : ->NO+O2
 !!! THE CRS ON FILE ARE CRS*QY : QY COLUMN NOT MEANINGFUL !! Source : Magnotta & Johnson,GRL,Vol.7,1980,pp.769-776.
 ! JPL97 not used since gives crs but no qy ! (unusable). Range : 472.5-632.5nm
 Begins at wl interval :       128 | Finishes at wl interval :   159
 ! no  from(nm) to(nm) | crs (cm2)  | qyield (0->1)
 128   472.50   477.50     6.50E-19      1.000
 129   477.50   482.50     7.10E-19      1.000
 130   482.50   487.50     7.80E-19      1.000
 131   487.50   492.50     9.30E-19      1.000
 132   492.50   497.50     1.08E-18      1.000
 133   497.50   502.50     1.00E-18      1.000
 134   502.50   507.50     1.17E-18      1.000
 135   507.50   512.50     1.46E-18      1.000
 136   512.50   517.50     1.52E-18      1.000
 137   517.50   522.50     1.60E-18      1.000
 138   522.50   527.50     1.78E-18      1.000
 139   527.50   532.50     1.94E-18      1.000
 140   532.50   537.50     2.25E-18      1.000
 141   537.50   542.50     2.03E-18      1.000
 142   542.50   547.50     2.18E-18      1.000
 143   547.50   552.50     2.50E-18      1.000
 144   552.50   557.50     3.13E-18      1.000
 145   557.50   562.50     3.57E-18      1.000
 146   562.50   567.50     3.35E-18      1.000
 147   567.50   572.50     3.30E-18      1.000
 148   572.50   577.50     3.69E-18      1.000
 149   577.50   582.50     4.09E-18      1.000
 150   582.50   587.50     4.48E-18      1.000
 151   587.50   592.50     4.90E-18      1.000
 152   592.50   597.50     4.16E-18      1.000
 153   597.50   602.50     2.30E-18      1.000
 154   602.50   607.50     1.97E-18      1.000
 155   607.50   612.50     1.36E-18      1.000
 156   612.50   617.50     8.90E-19      1.000
 157   617.50   622.50     1.37E-18      1.000
 158   622.50   627.50     1.43E-18      1.000
 159   627.50   632.50     5.50E-19      1.000
========================================================================================================================
 !iproc = 43 : NO+hv->N+O . CRS NOT USED
 !J's computed DIRECTLY in subroutine MINSCH, file minsch.f,
 !from Minschwaner & Siskind 1993
 Begins at wl interval :         1 | Finishes at wl interval :     1
 ! no  from(nm) to(nm) | crs (cm2)  | qyield (0->1)
   1   116.30   117.00     9.99E-04      1.000
========================================================================================================================
 !iproc = 44 : BrCl+hv->Br+Cl . T indep.
 !Source : Maric & al.,J.Photochem.Photobiol.A:Chem,Vol.83,1994,p.190,formula(21). Similar to JPL97
 ! wl range : 200-597.5 nm
 Begins at wl interval :        60 | Finishes at wl interval :   152
 ! no  from(nm) to(nm) | crs (cm2)  | qyield (0->1)
  60   200.00   202.00     2.83E-20      1.000
  61   202.00   204.10     3.22E-20      1.000
  62   204.10   206.20     3.64E-20      1.000
  63   206.20   208.30     4.06E-20      1.000
  64   208.30   210.50     4.48E-20      1.000
  65   210.50   212.80     4.90E-20      1.000
  66   212.80   215.00     5.29E-20      1.000
  67   215.00   217.40     5.65E-20      1.000
  68   217.40   219.80     5.97E-20      1.000
  69   219.80   222.20     6.22E-20      1.000
  70   222.20   224.70     6.40E-20      1.000
  71   224.70   227.30     6.50E-20      1.000
  72   227.30   229.90     6.51E-20      1.000
  73   229.90   232.60     6.43E-20      1.000
  74   232.60   235.30     6.25E-20      1.000
  75   235.30   238.10     6.00E-20      1.000
  76   238.10   241.00     5.66E-20      1.000
  77   241.00   243.90     5.25E-20      1.000
  78   243.90   246.90     4.80E-20      1.000
  79   246.90   250.00     4.30E-20      1.000
  80   250.00   253.20     3.79E-20      1.000
  81   253.20   256.40     3.27E-20      1.000
  82   256.40   259.70     2.78E-20      1.000
  83   259.70   263.20     2.31E-20      1.000
  84   263.20   266.70     1.87E-20      1.000
  85   266.70   270.30     1.49E-20      1.000
  86   270.30   274.00     1.16E-20      1.000
  87   274.00   277.80     8.88E-21      1.000
  88   277.80   281.70     6.68E-21      1.000
  89   281.70   285.70     5.02E-21      1.000
  90   285.70   289.90     3.93E-21      1.000
  91   289.90   294.10     3.49E-21      1.000
  92   294.10   298.50     3.89E-21      1.000
  93   298.50   303.00     5.49E-21      1.000
  94   303.00   307.70     8.90E-21      1.000
  95   307.70   312.50     1.51E-20      1.000
  96   312.50   317.50     2.53E-20      1.000
  97   317.50   322.50     4.11E-20      1.000
  98   322.50   327.50     6.34E-20      1.000
  99   327.50   332.50     9.28E-20      1.000
 100   332.50   337.50     1.30E-19      1.000
 101   337.50   342.50     1.72E-19      1.000
 102   342.50   347.50     2.19E-19      1.000
 103   347.50   352.50     2.67E-19      1.000
 104   352.50   357.50     3.12E-19      1.000
 105   357.50   362.50     3.50E-19      1.000
 106   362.50   367.50     3.79E-19      1.000
 107   367.50   372.50     3.96E-19      1.000
 108   372.50   377.50     4.00E-19      1.000
 109   377.50   382.50     3.92E-19      1.000
 110   382.50   387.50     3.74E-19      1.000
 111   387.50   392.50     3.49E-19      1.000
 112   392.50   397.50     3.18E-19      1.000
 113   397.50   402.50     2.86E-19      1.000
 114   402.50   407.50     2.54E-19      1.000
 115   407.50   412.50     2.25E-19      1.000
 116   412.50   417.50     2.00E-19      1.000
 117   417.50   422.50     1.78E-19      1.000
 118   422.50   427.50     1.61E-19      1.000
 119   427.50   432.50     1.46E-19      1.000
 120   432.50   437.50     1.35E-19      1.000
 121   437.50   442.50     1.26E-19      1.000
 122   442.50   447.50     1.17E-19      1.000
 123   447.50   452.50     1.10E-19      1.000
 124   452.50   457.50     1.03E-19      1.000
 125   457.50   462.50     9.52E-20      1.000
 126   462.50   467.50     8.78E-20      1.000
 127   467.50   472.50     8.02E-20      1.000
 128   472.50   477.50     7.24E-20      1.000
 129   477.50   482.50     6.47E-20      1.000
 130   482.50   487.50     5.72E-20      1.000
 131   487.50   492.50     4.99E-20      1.000
 132   492.50   497.50     4.31E-20      1.000
 133   497.50   502.50     3.68E-20      1.000
 134   502.50   507.50     3.10E-20      1.000
 135   507.50   512.50     2.59E-20      1.000
 136   512.50   517.50     2.14E-20      1.000
 137   517.50   522.50     1.74E-20      1.000
 138   522.50   527.50     1.41E-20      1.000
 139   527.50   532.50     1.13E-20      1.000
 140   532.50   537.50     8.94E-21      1.000
 141   537.50   542.50     7.01E-21      1.000
 142   542.50   547.50     5.45E-21      1.000
 143   547.50   552.50     4.20E-21      1.000
 144   552.50   557.50     3.21E-21      1.000
 145   557.50   562.50     2.44E-21      1.000
 146   562.50   567.50     1.83E-21      1.000
 147   567.50   572.50     1.37E-21      1.000
 148   572.50   577.50     1.01E-21      1.000
 149   577.50   582.50     7.42E-22      1.000
 150   582.50   587.50     5.41E-22      1.000
 151   587.50   592.50     3.92E-22      1.000
 152   592.50   597.50     2.82E-22      1.000
========================================================================================================================
 !iproc = 45 : BrO+hv->Br+O : T indep.
 !Source : JPL97(table53,p.196)
 !range : 303. - 372.5 nm
 Begins at wl interval :        94 | Finishes at wl interval :   107
 ! no  from(nm) to(nm) | crs (cm2)  | qyield (0->1)
  94   303.00   307.70     2.34E-18      1.000
  95   307.70   312.50     3.61E-18      1.000
  96   312.50   317.50     4.22E-18      1.000
  97   317.50   322.50     4.96E-18      1.000
  98   322.50   327.50     6.77E-18      1.000
  99   327.50   332.50     6.90E-18      1.000
 100   332.50   337.50     6.08E-18      1.000
 101   337.50   342.50     5.52E-18      1.000
 102   342.50   347.50     4.57E-18      1.000
 103   347.50   352.50     3.13E-18      1.000
 104   352.50   357.50     2.00E-18      1.000
 105   357.50   362.50     1.66E-18      1.000
 106   362.50   367.50     1.26E-18      1.000
 107   367.50   372.50     7.15E-19      1.000
========================================================================================================================
 !iproc = 46 : HO2NO2+hv->OH+NO3 . T ind. qyield=0.67.
 !Sources : JPL97(table21,p.165). Other branch : iproc = 14 : ->HO2+NO2 : qyield = 0.33
 !range : 190.5-327.5 nm
 Begins at wl interval :        55 | Finishes at wl interval :    98
 ! no  from(nm) to(nm) | crs (cm2)  | qyield (0->1)
  55   190.50   192.30     9.56E-18       .330
  56   192.30   194.20     8.84E-18       .330
  57   194.20   196.10     8.08E-18       .330
  58   196.10   198.00     7.12E-18       .330
  59   198.00   200.00     6.14E-18       .330
  60   200.00   202.00     5.24E-18       .330
  61   202.00   204.10     4.43E-18       .330
  62   204.10   206.20     3.63E-18       .330
  63   206.20   208.30     3.09E-18       .330
  64   208.30   210.50     2.54E-18       .330
  65   210.50   212.80     2.13E-18       .330
  66   212.80   215.00     1.78E-18       .330
  67   215.00   217.40     1.51E-18       .330
  68   217.40   219.80     1.30E-18       .330
  69   219.80   222.20     1.13E-18       .330
  70   222.20   224.70     1.01E-18       .330
  71   224.70   227.30     9.06E-19       .330
  72   227.30   229.90     8.32E-19       .330
  73   229.90   232.60     7.64E-19       .330
  74   232.60   235.30     7.05E-19       .330
  75   235.30   238.10     6.48E-19       .330
  76   238.10   241.00     5.90E-19       .330
  77   241.00   243.90     5.36E-19       .330
  78   243.90   246.90     4.83E-19       .330
  79   246.90   250.00     4.36E-19       .330
  80   250.00   253.20     3.92E-19       .330
  81   253.20   256.40     3.52E-19       .330
  82   256.40   259.70     3.10E-19       .330
  83   259.70   263.20     2.69E-19       .330
  84   263.20   266.70     2.30E-19       .330
  85   266.70   270.30     1.96E-19       .330
  86   270.30   274.00     1.61E-19       .330
  87   274.00   277.80     1.27E-19       .330
  88   277.80   281.70     9.50E-20       .330
  89   281.70   285.70     7.01E-20       .330
  90   285.70   289.90     4.91E-20       .330
  91   289.90   294.10     3.30E-20       .330
  92   294.10   298.50     2.14E-20       .330
  93   298.50   303.00     1.32E-20       .330
  94   303.00   307.70     8.72E-21       .330
  95   307.70   312.50     4.96E-21       .330
  96   312.50   317.50     3.00E-21       .330
  97   317.50   322.50     2.00E-21       .330
  98   322.50   327.50     1.00E-21       .330
========================================================================================================================
 !iproc = 47 : ClONO2+hv->Cl+NO3 . T dep. qyield lambda dep. Other branch : iproc=16 : ->ClO+NO2 (qy=.1)
 ! Sources : JPL97(table40,p.185). T range:220-298K; wl range:196.1-432.5nm.
 ! T dep formula : crs(T)=crs(296K)*(1+ta1_clono2*(T-296)+ta2_clono2*(T-296)**2), T(K)
 Begins at wl interval :        58 | Finishes at wl interval :   119
 ! no  from(nm) to(nm) | crs (cm2)  |qyield(0->1)|ta1_clono2 | ta2_clono2 
  58   196.10   198.00     3.04E-18       .600    8.910E-05  -8.255E-06
  59   198.00   200.00     2.87E-18       .600    3.573E-05  -7.812E-06
  60   200.00   202.00     2.79E-18       .600   -5.752E-05  -7.516E-06
  61   202.00   204.10     2.78E-18       .600   -1.908E-04  -7.448E-06
  62   204.10   206.20     2.84E-18       .600   -3.469E-04  -7.617E-06
  63   206.20   208.30     2.95E-18       .600   -5.069E-04  -7.923E-06
  64   208.30   210.50     3.10E-18       .600   -6.581E-04  -8.302E-06
  65   210.50   212.80     3.27E-18       .600   -7.876E-04  -8.693E-06
  66   212.80   215.00     3.39E-18       .600   -8.714E-04  -9.027E-06
  67   215.00   217.40     3.45E-18       .600   -9.034E-04  -9.255E-06
  68   217.40   219.80     3.39E-18       .600   -8.728E-04  -9.367E-06
  69   219.80   222.20     3.24E-18       .600   -7.839E-04  -9.368E-06
  70   222.20   224.70     2.98E-18       .600   -6.416E-04  -9.274E-06
  71   224.70   227.30     2.64E-18       .600   -4.530E-04  -9.060E-06
  72   227.30   229.90     2.27E-18       .600   -2.362E-04  -8.655E-06
  73   229.90   232.60     1.92E-18       .600   -3.127E-06  -7.973E-06
  74   232.60   235.30     1.59E-18       .600    2.231E-04  -7.116E-06
  75   235.30   238.10     1.31E-18       .600    4.166E-04  -6.361E-06
  76   238.10   241.00     1.08E-18       .600    5.664E-04  -5.997E-06
  77   241.00   243.90     8.93E-19       .600    6.800E-04  -6.081E-06
  78   243.90   246.90     7.45E-19       .600    7.812E-04  -6.448E-06
  79   246.90   250.00     6.07E-19       .600    9.057E-04  -6.573E-06
  80   250.00   253.20     5.13E-19       .600    1.076E-03  -6.040E-06
  81   253.20   256.40     4.35E-19       .600    1.264E-03  -5.084E-06
  82   256.40   259.70     3.71E-19       .600    1.443E-03  -4.208E-06
  83   259.70   263.20     3.14E-19       .600    1.596E-03  -3.486E-06
  84   263.20   266.70     2.66E-19       .600    1.738E-03  -2.725E-06
  85   266.70   270.30     2.21E-19       .600    1.881E-03  -1.876E-06
  86   270.30   274.00     1.84E-19       .600    2.030E-03  -9.726E-07
  87   274.00   277.80     1.50E-19       .600    2.017E-03   6.247E-08
  88   277.80   281.70     1.21E-19       .600    2.374E-03   1.139E-06
  89   281.70   285.70     9.51E-20       .600    2.546E-03   2.137E-06
  90   285.70   289.90     7.33E-20       .600    2.741E-03   3.053E-06
  91   289.90   294.10     5.50E-20       .600    2.950E-03   3.740E-06
  92   294.10   298.50     4.01E-20       .600    3.279E-03   5.284E-06
  93   298.50   303.00     2.98E-20       .600    3.711E-03   7.757E-06
  94   303.00   307.70     2.18E-20       .600    4.124E-03   9.907E-06
  95   307.70   312.50     1.59E-20       .615    4.539E-03   1.205E-05
  96   312.50   317.50     1.14E-20       .650    4.980E-03   1.490E-05
  97   317.50   322.50     8.31E-21       .656    5.400E-03   1.840E-05
  98   322.50   327.50     6.11E-21       .721    5.743E-03   2.269E-05
  99   327.50   332.50     4.66E-21       .757    5.920E-03   2.700E-05
 100   332.50   337.50     3.66E-21       .793    5.845E-03   2.757E-05
 101   337.50   342.50     3.02E-21       .829    5.510E-03   3.110E-05
 102   342.50   347.50     2.57E-21       .864    4.923E-03   2.864E-05
 103   347.50   352.50     2.29E-21       .900    4.020E-03   2.070E-05
 104   352.50   357.50     2.08E-21       .936    3.272E-03   1.382E-05
 105   357.50   362.50     2.00E-21       .971    2.700E-03   8.590E-06
 106   362.50   367.50     1.80E-21       1.00    2.080E-03   2.032E-06
 107   367.50   372.50     1.59E-21       1.00    1.330E-03  -7.400E-06
 108   372.50   377.50     1.41E-21       1.00    7.647E-04  -1.438E-05
 109   377.50   382.50     1.21E-21       1.00    3.530E-04  -1.910E-05
 110   382.50   387.50     1.05E-21       1.00    2.369E-04  -2.115E-05
 111   387.50   392.50     9.09E-22       1.00    4.100E-04  -2.050E-05
 112   392.50   397.50     7.56E-22       1.00    7.728E-04  -1.872E-05
 113   397.50   402.50     6.38E-22       1.00    1.380E-03  -1.420E-05
 114   402.50   407.50     5.40E-22       1.00    2.151E-03  -7.147E-06
 115   407.50   412.50     4.44E-22       1.00    3.380E-03   4.470E-06
 116   412.50   417.50     3.65E-22       1.00    4.880E-03   1.925E-05
 117   417.50   422.50     3.16E-22       1.00    6.700E-03   3.870E-05
 118   422.50   427.50     2.31E-22       1.00    8.099E-03   5.555E-05
 119   427.50   432.50     1.89E-22       1.00    9.720E-03   7.520E-05
========================================================================================================================
 !iproc = 48 : NO3+hv->NO+O2 . T ind. Branch also called NO3b. Other branch, NO3a : iproc=42 : ->NO2+O
 !!! THE CRS ON FILE ARE CRS*QY : QY COLUMN NOT MEANINGFUL !! Source : Magnotta & Johnson,GRL,Vol.7,1980,pp.769-776.
 ! JPL97 not used since JPL gives crs but no qy ! (unusable). Range : 582.5-632.5nm
 Begins at wl interval :       150 | Finishes at wl interval :   159
 ! no  from(nm) to(nm) | crs (cm2)  | qyield (0->1)
 150   582.50   587.50     4.85E-19      1.000
 151   587.50   592.50     1.58E-18      1.000
 152   592.50   597.50     1.91E-18      1.000
 153   597.50   602.50     1.39E-18      1.000
 154   602.50   607.50     1.03E-18      1.000
 155   607.50   612.50     6.80E-19      1.000
 156   612.50   617.50     3.50E-19      1.000
 157   617.50   622.50     3.10E-19      1.000
 158   622.50   627.50     2.40E-19      1.000
 159   627.50   632.50     5.00E-20      1.000
========================================================================================================================
 !iproc :  49: ClOO+hv->ClO+O : T indep.
 !Source : JPL97(table27,p.172)
 !range : 219.8 - 281.7 nm
 Begins at wl interval :        69 | Finishes at wl interval :    88
 ! no  from(nm) to(nm) | crs (cm2)  | qyield (0->1)
  69   219.80   222.20     6.40E-18      1.000
  70   222.20   224.70     7.26E-18      1.000
  71   224.70   227.30     9.51E-18      1.000
  72   227.30   229.90     1.19E-17      1.000
  73   229.90   232.60     1.56E-17      1.000
  74   232.60   235.30     1.95E-17      1.000
  75   235.30   238.10     2.34E-17      1.000
  76   238.10   241.00     2.68E-17      1.000
  77   241.00   243.90     2.92E-17      1.000
  78   243.90   246.90     2.97E-17      1.000
  79   246.90   250.00     2.92E-17      1.000
  80   250.00   253.20     2.66E-17      1.000
  81   253.20   256.40     2.27E-17      1.000
  82   256.40   259.70     1.88E-17      1.000
  83   259.70   263.20     1.44E-17      1.000
  84   263.20   266.70     1.02E-17      1.000
  85   266.70   270.30     6.93E-18      1.000
  86   270.30   274.00     4.28E-18      1.000
  87   274.00   277.80     2.85E-18      1.000
  88   277.80   281.70     2.01E-18      1.000
========================================================================================================================
 !iproc = 50 : O2+hv->O(3P)+O(1D) . T ind. Sources : 116.3-135.1nm :Watanabe & al.:J.Chem.Phys,Vol21,No6,1953(!)
 !135.1-175.4nm : S.R.continuum : ? Lyman-a qy see Lacoursiere/et-al:1999
 ! Values from crsnewadd.dat. For O2->O(3P)+O(3P) : see  iproc= 1
 Begins at wl interval :         1 | Finishes at wl interval :    45
 ! no  from(nm) to(nm) | crs (cm2)  | qyield (0->1)
   1   116.30   117.00     2.00E-20      1.000
   2   117.00   117.60     1.25E-18      1.000
   3   117.60   118.30     2.55E-19      1.000
   4   118.30   119.00     3.00E-20      1.000
   5   119.00   119.80     3.75E-19      1.000
   6   119.80   120.50     4.45E-18      1.000
   7   120.50   121.20     8.35E-18      1.000
   8   121.59   121.59     1.00E-20      0.580
   9   121.20   122.00     6.00E-19      1.000
  10   122.00   122.70     2.35E-19      1.000
  11   122.70   123.50     4.50E-19      1.000
  12   123.50   124.20     3.35E-19      1.000
  13   124.20   125.00     1.75E-17      1.000
  14   125.00   125.80     8.95E-19      1.000
  15   125.80   126.60     4.30E-19      1.000
  16   126.60   127.40     1.10E-19      1.000
  17   127.40   128.20     2.05E-19      1.000
  18   128.20   129.00     4.43E-19      1.000
  19   129.00   129.90     5.55E-19      1.000
  20   129.90   130.70     4.20E-19      1.000
  21   130.70   131.60     6.85E-19      1.000
  22   131.60   132.40     1.45E-18      1.000
  23   132.40   133.30     2.25E-18      1.000
  24   133.30   134.20     2.30E-18      1.000
  25   134.20   135.10     4.55E-18      1.000
  26   135.10   136.00     7.23E-18      1.000
  27   136.00   137.00     9.50E-18      1.000
  28   137.00   137.90     1.23E-17      1.000
  29   137.90   138.90     1.32E-17      1.000
  30   138.90   140.80     1.36E-17      1.000
  31   140.80   142.80     1.40E-17      1.000
  32   142.80   144.90     1.48E-17      1.000
  33   144.90   147.00     1.41E-17      1.000
  34   147.00   149.20     1.29E-17      1.000
  35   149.20   151.50     1.15E-17      1.000
  36   151.50   153.80     9.91E-18      1.000
  37   153.80   156.20     8.24E-18      1.000
  38   156.20   158.70     6.58E-18      1.000
  39   158.70   161.30     4.97E-18      1.000
  40   161.30   163.90     3.45E-18      1.000
  41   163.90   166.70     2.08E-18      1.000
  42   166.70   169.50     1.23E-18      1.000
  43   169.50   172.40     7.22E-19      1.000
  44   172.40   173.90     4.58E-19      1.000
  45   173.90   175.40     2.74E-19      1.000
========================================================================================================================
 !iproc :  51: CHBr3 + hv -> Prod.,  T dependency computed in model 
 !Source : JPL97(table58,p.202)
 !range : 190. - 362. nm
 Begins at wl interval :        54 | Finishes at wl interval :   105 
 ! no  from(nm) to(nm) | crs (cm2)  | qyield (0->1)
  54   188.70   190.50     3.96E-18      1.000
  55   190.50   192.30     3.74E-18      1.000
  56   192.30   194.20     3.49E-18      1.000
  57   194.20   196.10     3.58E-18      1.000
  58   196.10   198.00     3.80E-18      1.000
  59   198.00   200.00     4.05E-18      1.000
  60   200.00   202.00     4.26E-18      1.000
  61   202.00   204.10     4.37E-18      1.000
  62   204.10   206.20     4.43E-18      1.000
  63   206.20   208.30     4.48E-18      1.000
  64   208.30   210.50     4.62E-18      1.000
  65   210.50   212.80     4.88E-18      1.000
  66   212.80   215.00     5.22E-18      1.000
  67   215.00   217.40     5.56E-18      1.000
  68   217.40   219.80     5.78E-18      1.000
  69   219.80   222.20     5.82E-18      1.000
  70   222.20   224.70     5.65E-18      1.000
  71   224.70   227.30     5.27E-18      1.000
  72   227.30   229.90     4.74E-18      1.000
  73   229.90   232.60     4.12E-18      1.000
  74   232.60   235.30     3.63E-18      1.000
  75   235.30   238.10     3.13E-18      1.000
  76   238.10   241.00     2.78E-18      1.000
  77   241.00   243.90     2.49E-18      1.000
  78   243.90   246.90     2.20E-18      1.000
  79   246.90   250.00     1.89E-18      1.000
  80   250.00   253.20     1.61E-18      1.000
  81   253.20   256.40     1.27E-18      1.000
  82   256.40   259.70     9.86E-19      1.000
  83   259.70   263.20     7.26E-19      1.000
  84   263.20   266.70     5.21E-19      1.000
  85   266.70   270.30     3.61E-19      1.000
  86   270.30   274.00     2.46E-19      1.000
  87   274.00   277.80     1.62E-19      1.000
  88   277.80   281.70     1.01E-19      1.000
  89   281.70   285.70     6.32E-20      1.000
  90   285.70   289.90     3.85E-20      1.000
  91   289.90   294.10     2.22E-20      1.000
  92   294.10   298.50     1.22E-20      1.000
  93   298.50   303.00     6.43E-21      1.000
  94   303.00   307.70     3.26E-21      1.000
  95   307.70   312.50     1.69E-21      1.000
  96   312.50   317.50     8.24E-22      1.000
  97   317.50   322.50     3.90E-22      1.000
  98   322.50   327.50     1.87E-22      1.000
  99   327.50   332.50     9.20E-23      1.000
 100   332.50   337.50     4.55E-23      1.000
 101   337.50   342.50     2.40E-23      1.000
 102   342.50   347.50     1.13E-23      1.000
 103   347.50   352.50     6.40E-24      1.000
 104   352.50   357.50     3.90E-24      1.000
 105   357.50   362.50     1.70E-24      1.000
========================================================================================================================
 !iproc :  52: HO2 + hv -> OH + O, no T dep
 !Source : JPL97 (table9,p.156) - using simply cst vals in samller intervals
 !range : 190. - 250. nm
 Begins at wl interval :        54 | Finishes at wl interval :   80
 ! no  from(nm) to(nm) | crs (cm2)  | qyield (0->1)
  54   188.70   190.50     3.87E-18      1.000
  55   190.50   192.30     3.87E-18      1.000
  56   192.30   194.20     3.87E-18      1.000
  57   194.20   196.10     3.87E-18      1.000
  58   196.10   198.00     3.87E-18      1.000
  59   198.00   200.00     4.58E-18      1.000
  60   200.00   202.00     4.58E-18      1.000
  61   202.00   204.10     4.58E-18      1.000
  62   204.10   206.20     4.58E-18      1.000
  63   206.20   208.30     4.58E-18      1.000
  64   208.30   210.50     4.54E-18      1.000
  65   210.50   212.80     4.54E-18      1.000
  66   212.80   215.00     4.54E-18      1.000
  67   215.00   217.40     4.54E-18      1.000
  68   217.40   219.80     4.54E-18      1.000
  69   219.80   222.20     3.73E-18      1.000
  70   222.20   224.70     3.73E-18      1.000
  71   224.70   227.30     3.73E-18      1.000
  72   227.30   229.90     3.73E-18      1.000
  73   229.90   232.60     2.45E-18      1.000
  74   232.60   235.30     2.45E-18      1.000
  75   235.30   238.10     2.45E-18      1.000
  76   238.10   241.00     1.35E-18      1.000
  77   241.00   243.90     1.35E-18      1.000
  78   243.90   246.90     1.35E-18      1.000
  79   246.90   250.00     0.60E-18      1.000
  80   250.00   253.20     0.60E-18      1.000
