! Solar flux at min (SEP 1986) and max (NOV 1989) of cycle 22
! Source: Lean, J., et al., 1997, JGR vol.102 p 29939 (SOLSTICE analysis V0009)
! units :  photons cm-2 s-1 on wl interval : NOT per nm !
             108   ...is the number of wavelength intervals (data lines)
!  wavelength interval | Min solflux |  Max solflux
!  no  from(nm) to(nm) | (phot/cm2/s)| (phot/cm2/s)
!--------------------------------------------------------------
   5   119.00   119.80     2.1776e+09     2.9311e+09
  10   122.00   122.70     2.3693e+09     3.0457e+09
  11   122.70   123.50     2.1357e+09     2.7651e+09
  12   123.50   124.20     1.5028e+09     1.9567e+09
  13   124.20   125.00     1.5343e+09     1.9932e+09
  14   125.00   125.80     1.3270e+09     1.7182e+09
  15   125.80   126.60     1.8032e+09     2.6466e+09
  16   126.60   127.40     1.5119e+09     2.1671e+09
  17   127.40   128.20     1.0124e+09     1.3081e+09
  18   128.20   129.00     8.7278e+08     1.1137e+09
  19   129.00   129.90     1.1349e+09     1.5339e+09
  20   129.90   130.70     6.7858e+09     8.9452e+09
  21   130.70   131.60     3.9597e+09     5.0773e+09
  22   131.60   132.40     1.2721e+09     1.5278e+09
  23   132.40   133.30     4.4234e+09     6.2694e+09
  24   133.30   134.20     8.7096e+09     1.2671e+10
  25   134.20   135.10     1.0155e+09     1.2153e+09
  26   135.10   136.00     3.0086e+09     3.5170e+09
  27   136.00   137.00     1.8871e+09     2.2762e+09
  28   137.00   137.90     1.8294e+09     2.1684e+09
  29   137.90   138.90     2.0570e+09     2.4277e+09
  30   138.90   140.80     9.2435e+09     1.2334e+10
  31   140.80   142.80     6.6306e+09     7.8487e+09
  32   142.80   144.90     7.9493e+09     9.2368e+09
  33   144.90   147.00     9.6543e+09     1.1190e+10
  34   147.00   149.20     1.3843e+10     1.5648e+10
  35   149.20   151.50     1.4991e+10     1.7139e+10
  36   151.50   153.80     2.0604e+10     2.4461e+10
  37   153.80   156.20     3.6693e+10     4.3738e+10
  38   156.20   158.70     3.4990e+10     4.0209e+10
  39   158.70   161.30     3.8889e+10     4.3890e+10
  40   161.30   163.90     5.4643e+10     6.2303e+10
  41   163.90   166.70     9.0009e+10     1.0272e+11
  42   166.70   169.50     1.0561e+11     1.1852e+11
  43   169.50   172.40     1.6797e+11     1.8806e+11
  44   172.40   173.90     9.6025e+10     1.0715e+11
  45   173.90   175.40     1.2493e+11     1.3907e+11
  46   175.40   177.00     1.6493e+11     1.8297e+11
  47   177.00   178.60     2.1172e+11     2.3675e+11
  48   178.60   180.20     2.3178e+11     2.5975e+11
  49   180.20   181.80     3.0472e+11     3.5036e+11
  50   181.80   183.50     3.5179e+11     3.9228e+11
  51   183.50   185.20     3.4019e+11     3.7419e+11
  52   185.20   186.90     3.9661e+11     4.3573e+11
  53   186.90   188.70     5.3095e+11     5.8450e+11
  54   188.70   190.50     6.2202e+11     6.8448e+11
  55   190.50   192.30     7.0786e+11     7.7642e+11
  56   192.30   194.20     7.3085e+11     7.9743e+11
  57   194.20   196.10     9.6224e+11     1.0566e+12
  58   196.10   198.00     1.2030e+12     1.3120e+12
  59   198.00   200.00     1.2892e+12     1.3972e+12
  60   200.00   202.00     1.5576e+12     1.6882e+12
  61   202.00   204.10     1.7614e+12     1.9053e+12
  62   204.10   206.20     2.3924e+12     2.5971e+12
  63   206.20   208.30     2.7019e+12     2.9307e+12
  64   208.30   210.50     4.8244e+12     5.0825e+12
  65   210.50   212.80     7.9742e+12     8.3066e+12
  66   212.80   215.00     8.6756e+12     9.0089e+12
  67   215.00   217.40     8.8024e+12     9.1666e+12
  68   217.40   219.80     1.1426e+13     1.1884e+13
  69   219.80   222.20     1.1502e+13     1.1949e+13
  70   222.20   224.70     1.6493e+13     1.7059e+13
  71   224.70   227.30     1.3547e+13     1.4073e+13
  72   227.30   229.90     1.4067e+13     1.4573e+13
  73   229.90   232.60     1.6082e+13     1.6649e+13
  74   232.60   235.30     1.3581e+13     1.4071e+13
  75   235.30   238.10     1.6294e+13     1.6868e+13
  76   238.10   241.00     1.4591e+13     1.5165e+13
  77   241.00   243.90     2.1691e+13     2.2326e+13
  78   243.90   246.90     1.9845e+13     2.0515e+13
  79   246.90   250.00     2.0110e+13     2.0823e+13
  80   250.00   253.20     1.9324e+13     2.0001e+13
  81   253.20   256.40     2.7771e+13     2.8457e+13
  82   256.40   259.70     5.0575e+13     5.1432e+13
  83   259.70   263.20     4.5035e+13     4.6133e+13
  84   263.20   266.70     1.1214e+14     1.1333e+14
  85   266.70   270.30     1.2052e+14     1.2149e+14
  86   270.30   274.00     1.1519e+14     1.1624e+14
  87   274.00   277.80     1.0276e+14     1.0382e+14
  88   277.80   281.70     7.2297e+13     7.4652e+13
  89   281.70   285.70     1.4822e+14     1.4998e+14
  90   285.70   289.90     2.1515e+14     2.1669e+14
  91   289.90   294.10     3.4304e+14     3.4404e+14
  92   294.10   298.50     3.4904e+14     3.5057e+14
  93   298.50   303.00     3.1651e+14     3.1852e+14
  94   303.00   307.70     4.4879e+14     4.5035e+14
  95   307.70   312.50     4.9230e+14     4.9433e+14
  96   312.50   317.50     5.5314e+14     5.5501e+14
  97   317.50   322.50     6.1135e+14     6.1282e+14
  98   322.50   327.50     7.0638e+14     7.0769e+14
  99   327.50   332.50     8.5073e+14     8.5169e+14
 100   332.50   337.50     7.9542e+14     7.9687e+14
 101   337.50   342.50     8.3758e+14     8.3895e+14
 102   342.50   347.50     8.2139e+14     8.2300e+14
 103   347.50   352.50     8.6358e+14     8.6536e+14
 104   352.50   357.50     9.2177e+14     9.2439e+14
 105   357.50   362.50     8.4152e+14     8.4454e+14
 106   362.50   367.50     1.0374e+15     1.0391e+15
 107   367.50   372.50     1.1088e+15     1.1098e+15
 108   372.50   377.50     9.9628e+14     9.9900e+14
 109   377.50   382.50     1.1370e+15     1.1399e+15
 110   382.50   387.50     8.9334e+14     9.0005e+14
 111   387.50   392.50     1.1693e+15     1.1732e+15
 112   392.50   397.50     9.3670e+14     9.4126e+14
 113   397.50   402.50     1.6533e+15     1.6541e+15
 114   402.50   407.50     1.7285e+15     1.7279e+15
 115   407.50   412.50     1.7641e+15     1.7641e+15
 116   412.50   417.50     1.9160e+15     1.9177e+15
